time	FP1	FPZ	FP2	F7	F3	FZ	F4	F8	FT7	FC3	FCZ	FC4	FT8	T7	C3	CZ	C4	T8	TP7	CP3	CPZ	CP4	TP8	P7	P3	PZ	P4	P8	PO3	POZ	PO4	O1	OZ	O2
-200	1.6110707480762971	1.3026295867456612	1.3101252284351106	1.5148465595146134	2.1058683342217677	1.698856945517012	1.6875679450343444	1.3748060430148492	1.4724059067744757	2.391274923009242	1.7710468724358852	0.7999542335340512	-0.5362800346186183	0.9789839362223034	1.5306831559635825	1.5489000042910026	0.5333268032913882	-0.15232059321093222	0.05747865870984173	0.7910919169479974	0.993937728279733	0.34411805781267346	-0.08821307100435707	0.2891241304727295	0.37589779401287865	0.6023089274458383	0.17874225928954865	-0.10289749477156561	-0.3820668449292338	-0.09310440695621051	0.40120598572525723	-0.7159593087239927	-0.24549563167102326	0.21430872326625738
-196	1.899902458162497	1.345795508801595	1.3472061123212877	1.6191288191924271	2.0777540154450933	1.6712003904110568	1.5794087608515486	1.234554049235956	1.2953681913095878	2.2257242146564655	1.6015964706038797	0.7773373107357762	-0.8384127595714437	0.6825529319696516	1.434340234949806	1.2983858552576575	0.5632430896843627	0.31022831719274674	0.43947288283018066	0.7077954989682982	0.7862368206200759	0.4436666060213442	0.13452181186091133	0.5354777561019671	0.42806669961618066	0.4089322377847603	0.14086915517050078	-0.11129233212982625	-0.501500903293921	-0.34343102487640453	0.18994176339831179	-1.0297896836030338	-0.6502042396341795	-0.13653475011686125
-192	1.9867575118448815	1.3510422672493465	1.3613867725332878	1.5056244096889593	1.9806487510265642	1.6751195150044333	1.534939166008379	0.9188318825411649	0.8410949685795643	1.9261947821622774	1.5438970288397666	0.8544835426691441	-0.5031331168823294	0.05812750369535756	1.1784963578033913	1.1642638415505677	0.6778640729955889	1.094442960836956	0.5999656304470549	0.48394575592880446	0.6151624306406203	0.613211749435981	0.47308906793360145	0.5068715797978479	0.2869743399527208	0.1820409442358635	0.13151128556903557	-0.035400133490592664	-0.7398482542432078	-0.6681755764303895	-0.04460001353089898	-1.4482448064479034	-1.14611971088959	-0.572300611481563
-188	1.8318147613052882	1.3154926266835831	1.3489145006455268	1.2129325836075615	1.8402374936372332	1.6791534381433575	1.5171651801905222	0.4786770629718307	0.21672469322799975	1.5509679278316189	1.5624828299174147	0.9407173967452477	0.2635127895377886	-0.7063169461537329	0.7649731616733647	1.1150877447585266	0.7732093910722785	1.74454080618048	0.4805673944737872	0.09514732634840677	0.44136142619279845	0.7493083458102047	0.6995767337302595	0.16282835561650108	-0.08573770501424599	-0.10410410884561042	0.07842364142406584	-0.0044349888227666005	-1.1306604118410966	-1.0857113572365644	-0.33834466252733836	-1.9531832884112765	-1.7218835310377938	-1.0883321734607214
-184	1.4913308582800395	1.2499670950802204	1.3148720231237487	0.89295422805404	1.6967552857475379	1.6499497848815186	1.469324704275236	0.0776628700918153	-0.3717034449729465	1.1873638599935274	1.5916862447606754	0.9550717448916847	1.0635708543627764	-1.305632945579021	0.2721475951953091	1.0953383418085112	0.7757864574872808	1.8133380367273035	0.14203853869339675	-0.3894889046848937	0.25907516414082	0.7980529049751613	0.6426680071817406	-0.3894011070433612	-0.6074616893690167	-0.401071666658595	-0.028945019395585973	-0.10189164404177863	-1.5977884490680838	-1.5185803136632068	-0.6554493291518817	-2.4309284625667194	-2.274858945825137	-1.5927543599923537
-180	1.1097841234798027	1.1894522875318947	1.2842812505721988	0.7268339377172278	1.599219675794817	1.5851733644518016	1.3662819827870418	-0.0746762154601118	-0.6972769481220522	0.9256674027913935	1.5823751648052407	0.8764134623334723	1.5200649461515239	-1.4665533267187565	-0.16665555494670495	1.063904759581965	0.6797000748639699	1.1288282842746162	-0.28369387912649996	-0.8236997702782987	0.10882174196186574	0.7696870545981699	0.28372102904212665	-0.9444215273854624	-1.1029790612029775	-0.6042911395074841	-0.14547392689215882	-0.3232096425479267	-1.9819985578087398	-1.8249387695013592	-0.908597765059069	-2.7176701953937914	-2.649984591469222	-1.9476286123693927
-176	0.8585737325925942	1.1817246645655652	1.2929713693399312	0.8121246675014316	1.5879679878196846	1.5236171445525895	1.242016669952283	0.15811933537139405	-0.614787934658442	0.8245097377941065	1.5349899491655996	0.7583781461641977	1.4678688012256282	-1.0920284958924902	-0.4195221949952669	1.0209478114100865	0.5491565452062254	-0.077039614125295	-0.6654914600736408	-1.0455601188964694	0.06061414613917362	0.7222363334540859	-0.22632996680814177	-1.29248213441685	-1.3825582230947642	-0.6057487114871415	-0.2042034859270017	-0.5789812192604115	-2.1114697403050378	-1.867449517303576	-1.0074791882827756	-2.6728205613364935	-2.709019177272933	-2.0381157346766403
-172	0.850366173027745	1.2571667401044626	1.3610675300566768	1.0906270714880695	1.6700980621133639	1.5209547242864843	1.1722712487187663	0.7368401270382782	-0.13865619862835082	0.8815906621609468	1.4944528303562028	0.6972586494961525	1.0201958392134987	-0.3250001064678142	-0.42099279058977485	1.0028750871133696	0.4815766501188984	-1.2652901379111015	-0.9266463494747129	-0.9570764875089987	0.17194914774397071	0.7225962859029758	-0.6410430653599765	-1.311929699446485	-1.3330876793582762	-0.3557035317977052	-0.15785977204521376	-0.7413637023327959	-1.8841965150945457	-1.5848129947703993	-0.9077020264596459	-2.2461545410666757	-2.395412915857681	-1.830871815827322
-168	1.070318815390051	1.3945105040628176	1.4634244405038168	1.364920970331677	1.8004049017273027	1.6018794734565587	1.2174351184625267	1.4218568765981447	0.5426521287568882	1.0240101788416247	1.5070824585057736	0.7670900206272182	0.4715001869218354	0.5071282373976028	-0.21249529665702818	1.046021339636577	0.547395943213295	-1.8720755529822037	-1.054495093544321	-0.5819187745661052	0.44186457880039953	0.8063278773930813	-0.7504922728663891	-1.0186871264487531	-0.9768776868951932	0.09832964067667209	-0.004824758029468714	-0.7125648838172491	-1.325045224659038	-1.0307686302863532	-0.6343290193754935	-1.5103445014968053	-1.7657930806400677	-1.3918222153809452
-164	1.3691575492623258	1.5105456075677697	1.523087140052585	1.4013038838292964	1.8856054496841892	1.7231100754148851	1.3657398189395338	1.8586718989175341	1.135099050517024	1.1307462425293564	1.5707309206406088	0.9620059704334121	0.10605312112020014	1.0440978977545312	0.06929152441411746	1.1446838350005761	0.7401228528409947	-1.6162737567148944	-1.0721888515105127	-0.06691929681094919	0.7904739359925264	0.9545153951387558	-0.49548765891861535	-0.5512404427916012	-0.46567836286274256	0.6187556966418326	0.21110022014726	-0.47656398891291096	-0.5875215515562014	-0.3594456902011905	-0.2685367458239325	-0.6425735934246547	-0.9726216768503966	-0.8545466043831571
-160	1.5325280389240126	1.4899326525264287	1.4411104881141703	1.06415819853091	1.819615478689909	1.7775901511135177	1.5178780517402362	1.7448103383834737	1.3644574846150737	1.0835382911028297	1.614821906781121	1.1818234890663535	0.03299465022101399	1.0634744140477732	0.2558602088190419	1.2336415021267486	0.9650803780031646	-0.6608114821916272	-1.003981468526897	0.37818685078505343	1.0803102227592343	1.097594496816853	-0.0007042410416443335	-0.10043945138129864	-0.011293952324784175	1.0304121945114963	0.42175176633210604	-0.10778205814567356	0.10442893180707441	0.2366810137018306	0.09203383303294148	0.13980394566524795	-0.20488564618357255	-0.357127665571728
-156	1.3916505540044255	1.2447824446721678	1.1513807744520517	0.40692454473753736	1.5374770125672184	1.647415156973489	1.5314938983397706	0.9963237618087125	1.1028789254000078	0.825162587466683	1.5325121840885423	1.2789252964154942	0.1449018117107267	0.5849159941210684	0.23334129095769146	1.21571206739571	1.0845476361549078	0.4823695409040212	-0.8528743960782055	0.5788692221331613	1.1782641381079326	1.1511272162938175	0.4929095494223321	0.1825039084118263	0.21720331852433772	1.1985895603436032	0.5683686718895921	0.26694416932419973	0.5522359595661264	0.6091680511353383	0.3791139414275492	0.6635320765908863	0.38647854230579065	0.019409600596299197
-152	0.921386895237656	0.7751396874884561	0.6724706871220599	-0.33363073980021096	1.062326190173719	1.2804324594594796	1.307327505625707	-0.17410753623396658	0.4375156451146327	0.398691504187111	1.2516305415024123	1.1459002465880812	0.2246496969750046	-0.14043915236301555	0.01001778614972011	1.023649928369512	0.9998600457696635	1.2512857882379018	-0.6075863226809273	0.4847930061498251	1.0288885805855945	1.0651415559579318	0.7631290535733148	0.254233568264906	0.1787617798106633	1.0951104136474654	0.6306279881767993	0.535627304155331	0.6735917312781652	0.7180001121513048	0.5824047908383766	0.8696230627992249	0.7463055830232913	0.281523077969261
-148	0.26885548166106416	0.18983170342201192	0.11903659969316722	-0.8476653077658567	0.5122317062796763	0.7389805298267584	0.857928273895951	-1.32830404899926	-0.3606732776595627	-0.060148358193171735	0.795492229837431	0.7856768945884696	0.11053379597174916	-0.752911625391714	-0.279323279152412	0.6741483790543171	0.71555214939656	1.340274807407147	-0.27106559208143327	0.19827119956025777	0.693510947860717	0.855758426413026	0.7236183863490036	0.18772923898983537	-0.020498212375147852	0.8138685801938671	0.6328034981009637	0.6550462229402835	0.540217577047184	0.6431715472195317	0.7432049494099038	0.8352764823805705	0.927175161881825	0.5050083982115181
-144	-0.3142698697261829	-0.3335594228429173	-0.34298527154157715	-0.9123019553039282	0.05300484584300516	0.18399348808564725	0.31447774092431224	-2.0017452189451026	-0.9596906876176023	-0.38289841912871814	0.2899072758984561	0.32017227926480857	-0.18909321677627053	-0.9614415144488142	-0.4425013650212497	0.275681018133318	0.3453241875989807	0.8466423728548041	0.11503428936763595	-0.07715328763317528	0.3274675003367067	0.5980365261237699	0.45709156874646745	0.12089761316054885	-0.18630465818097788	0.5244887457956968	0.6231262072089536	0.6601996405145526	0.3403294077863807	0.537183760240421	0.9182745791139221	0.7338890414782545	1.0504165861312171	0.7803019265501296
-140	-0.6039013251316373	-0.6355687363790468	-0.5796542153028712	-0.5175191150950622	-0.18644121242181352	-0.20702545292560656	-0.14155583047890197	-1.934678788068897	-1.1235116691833642	-0.45645812038571626	-0.09836768334110393	-0.07485140841182555	-0.5085130321061732	-0.685383616147533	-0.3402197650425932	-0.023402176738305167	0.049916744106150074	0.16945216016902195	0.468558369884051	-0.14578376673608023	0.10048162911795135	0.3830159892902408	0.15072450003716656	0.17119426982095748	-0.14557307921849236	0.3839884390672961	0.6394131167480638	0.6290215833995135	0.2797817580788668	0.5411482439683573	1.134503600117221	0.7478892188263303	1.234071609242362	1.1506395310914965
-136	-0.5273013101616121	-0.661156831502584	-0.563678442008703	0.11654344171663561	-0.18978610586887387	-0.3443948915846338	-0.3848612596808608	-1.2103304832418167	-0.8220150449979757	-0.2915228597910141	-0.26066288286201583	-0.2745409600955775	-0.6528916938510271	-0.08479434230376764	0.02378097356812215	-0.12168257652793651	-0.061400230818938285	-0.2667110257567494	0.6937678438790503	0.07046471518368885	0.09997476612122232	0.26112887197369333	-0.026027079605909262	0.36306625512964097	0.1526116873941191	0.4503954935623388	0.6777537447983882	0.6227611287606261	0.4695041167803143	0.7059373837767615	1.3591257299440866	0.9720776056542605	1.521373625728908	1.5740988214804945
-132	-0.21350164657571388	-0.4963135110722157	-0.3968171765322363	0.6433862431494707	-0.07387107592051861	-0.28912490533310964	-0.42531865727807183	-0.22297352496118536	-0.2417436236000137	-0.030819585469039186	-0.22192676309344397	-0.28662380503768176	-0.5512791262059629	0.5303559885939938	0.4854638862274007	-0.0342062003046918	-0.006545710360868823	-0.2862571172639493	0.7212316971689332	0.48098817346251677	0.2729933851025365	0.20527957327989851	-0.026231512361101814	0.6038435086263512	0.5983542784842653	0.6459339840793175	0.6848429424161404	0.6405554397623001	0.8581212737352465	0.9607130264822087	1.5051245651391347	1.3571226562568222	1.8484207345070753	1.9321417759750825
-128	0.06620166434024594	-0.3290576330460099	-0.2614369385794371	0.7624821047605562	-0.03691166630008703	-0.23178005159987022	-0.4094391454849728	0.5167995082205057	0.3120777003038459	0.11498141259727308	-0.1413146402844273	-0.2563598447526102	-0.3233845225752562	0.8622482993290748	0.7941930870031865	0.1035037038097232	0.06854347867349433	-0.05744616300265029	0.5430032597183735	0.8677116610553934	0.4468166816874481	0.1227575611949078	0.055128060142091734	0.7284029107776891	0.9716104244496905	0.7951225022268226	0.5837470278306848	0.6201769097882688	1.2511550156475948	1.1489300698836542	1.472914215183837	1.7263133482263167	2.071180815235859	2.083365911945817
-124	0.041268281534429886	-0.3512505582047456	-0.32425492920071364	0.3696952154839219	-0.25551661784510166	-0.3904955377256414	-0.5347325788348666	0.6413064582845739	0.5709844813236005	-0.02432835654732524	-0.2281705582341588	-0.38363990090785194	-0.21148762053499956	0.7729548792397302	0.7445796709335326	0.10722738477337478	-0.02708420336858967	0.047519381969401545	0.2199190104415764	1.0001779769440926	0.42331594121867505	-0.08484736808574207	0.05324028791456382	0.592743872099657	1.0587564680071337	0.7220097761998666	0.3229417494726601	0.4831661867817553	1.4118330443022855	1.1155840130296735	1.2084431617744138	1.861975069113357	2.040755982014945	1.936350459932047
-120	-0.41031664506314064	-0.655287204518502	-0.6466150267488017	-0.3953216661962752	-0.7858879546350863	-0.8844916202148408	-0.9270259118516843	0.11170181603839933	0.4297543753264125	-0.48448809859024644	-0.6193622931101802	-0.7980725149032429	-0.4198811937698427	0.3372757426329577	0.29255387113141335	-0.14778332374931186	-0.40907832876873595	-0.27893733907846574	-0.14641195498694326	0.7612300495955654	0.09545779204109674	-0.45005738621570407	-0.15209700128778306	0.16162975091657772	0.7701277117358818	0.3538761726027949	-0.08025868216755216	0.19533818910871667	1.1915404766516837	0.7991562465518129	0.7452540974874633	1.6213418204380605	1.68984257748252	1.5041892490556807
-116	-1.1912023991073712	-1.1851314276337463	-1.1530827254746712	-1.2280687062728988	-1.528519745782277	-1.6605093437232663	-1.559927936430213	-0.7757897953473798	-0.018783284303806432	-1.141679284074324	-1.2942336765037974	-1.4724391661661764	-0.9748859380904075	-0.2169755244737425	-0.41150239006098616	-0.6492246372997692	-1.0383578512678637	-1.065666076830631	-0.4559403050355374	0.21348272210104546	-0.48356029269201517	-0.9071608758910965	-0.5588793144420843	-0.4554127741282847	0.19431537340695335	-0.2297983312765426	-0.5350777493318893	-0.20260658809053358	0.6178755148546566	0.27502959897221246	0.20163372108096592	1.0183445189514493	1.0808920833000626	0.9087226963942028
-112	-2.0288906046187547	-1.7680907204810683	-1.6760415988567807	-1.8199013425655302	-2.276775592777695	-2.51377176603798	-2.2617103996394614	-1.559791441794022	-0.5550860152535108	-1.7732351973586438	-2.076796526433839	-2.2244577351674755	-1.6943018393654876	-0.6444758160532139	-1.0941424342187571	-1.2469172446240533	-1.7286386446224233	-2.029891962648453	-0.6527195556373504	-0.43110844384067876	-1.1189979286552094	-1.317291614067652	-1.0419371101775892	-1.0451821062402582	-0.44241651780962615	-0.8307018259056091	-0.913144824583569	-0.6081039890194946	-0.10953407706977795	-0.2738277607203182	-0.2663670175502968	0.22782289924322288	0.38865181705578156	0.33142578518160193
-108	-2.6134235792934635	-2.2079665605112355	-2.0486674257052977	-2.0112130591159008	-2.8215544152547998	-3.1910724559325745	-2.8033707071097913	-1.8644257736817544	-0.9633467173096046	-2.1713819448962055	-2.7239756515393707	-2.805335276196628	-2.2788541259450548	-0.8125764707076885	-1.496973033940233	-1.729559536381878	-2.2365186157980355	-2.734911434897991	-0.7410653214818036	-0.9198721027991588	-1.5712865551378021	-1.5381971558835763	-1.4218729698521935	-1.3857054675402483	-0.8880360104074607	-1.2286899058791794	-1.1066939802838691	-0.9045912004520277	-0.7134317737686737	-0.6430618150687772	-0.5325021134283581	-0.4913175987713679	-0.17579585269412812	-0.06607834233051701
-104	-2.754176132877917	-2.385698312458136	-2.1910307352060943	-1.8545695496465804	-3.0526311320480963	-3.517487517059139	-3.017985336313425	-1.5970772464484195	-1.1420301170125862	-2.2461318913017183	-3.050189964222839	-3.027314178452958	-2.4733540949364117	-0.748996196286304	-1.5043543539212918	-1.9361041735404567	-2.3868124424754646	-2.842158310390158	-0.7620944361519157	-1.085287449003992	-1.6779106813029283	-1.5022488794545616	-1.5647654493879701	-1.3468751873343303	-0.9864998434909252	-1.2911577192132846	-1.0811755629898987	-1.0206841204622659	-0.9745519136619295	-0.7056379300421659	-0.5560649619368302	-0.9172939038959086	-0.4630895543327491	-0.21350772624946562
-100	-2.468844169105513	-2.3094994963510813	-2.138763660753095	-1.5588068922741076	-2.998853199063145	-3.4729213626916775	-2.8804376052611635	-0.9826790665611796	-1.1336678237902909	-2.060091967149842	-3.0147647781550524	-2.8550813126005727	-2.1960067693579597	-0.589345692100302	-1.1904571026309814	-1.8360159350770298	-2.1596121733499936	-2.295691961214433	-0.7519850115863752	-0.9199496484418157	-1.431371566019618	-1.2537844149405777	-1.4471253120125585	-0.9474130248945416	-0.7457322459466443	-1.0345548365222164	-0.8911320544632121	-0.9625280475156816	-0.8370913842047542	-0.4715864646449299	-0.3971284319864676	-0.9688499545431773	-0.4564392853180148	-0.16114230413283528
-96	-1.9587101886887655	-2.0888900704096534	-2.0002081343695157	-1.3506718839876475	-2.7877781320759167	-3.177657596194715	-2.50336193406353	-0.4182905246187379	-1.06464922159333	-1.777598376554476	-2.7233858039761625	-2.409939998264241	-1.5604745110214233	-0.46846583367327077	-0.7611597757195527	-1.532284851973943	-1.6893421368862493	-1.3276321854450481	-0.7085152250521439	-0.5617982134940104	-0.9706435775092299	-0.9228014326638942	-1.1521542043207045	-0.3392607263105785	-0.31674975076812434	-0.6048776492105932	-0.6495264752201497	-0.8037752488823752	-0.4268080283356366	-0.07657433281877243	-0.183442726268152	-0.7345947008659688	-0.27499222686003266	-0.05049385117656954
-92	-1.4844913445186212	-1.8509908867833011	-1.8704500151139936	-1.3335962261862158	-2.5514235432103742	-2.800265781961991	-2.0560007043427886	-0.23238953889348216	-1.0348808739283146	-1.557718511463257	-2.3468549192304007	-1.8874719095259733	-0.7894266823864668	-0.4229151297858949	-0.42647954713910874	-1.1881879538101114	-1.18062269389574	-0.30498492640741626	-0.5834914431145333	-0.20223118313752478	-0.49433806413773485	-0.6507037265561362	-0.8127436617358613	0.27139273217345705	0.1007791606027577	-0.19123969923850254	-0.4684635090921304	-0.6453365667262421	0.02629047253050671	0.29246795103618656	-0.047502633064261945	-0.4142144311937416	-0.10739736231868384	-0.04160613183603471
-88	-1.2202080457397664	-1.6578003126250644	-1.7632360413856594	-1.431982871254891	-2.343342059894787	-2.4528357920707347	-1.6659698444266429	-0.4963381575927681	-1.0394190523607656	-1.4606535397844944	-2.015863651908114	-1.4462925159178595	-0.09276940650167682	-0.3752528717580372	-0.28540196942751583	-0.93066948417296	-0.7972826341526738	0.4630857098331708	-0.3162228159073179	0.020325107448641123	-0.15439610144257715	-0.5148676024789234	-0.5462276325740023	0.7162002903022112	0.3639751663555261	0.07164195906909473	-0.4059776951553485	-0.5718660340176028	0.31078731935236137	0.4883108424732646	-0.06902856362319354	-0.20845554716409187	-0.11431466014133776	-0.23539145231420963
-84	-1.168664333253935	-1.476876970377079	-1.6055656630987412	-1.4493588172559428	-2.1221775955026123	-2.1422026103293734	-1.366923447972495	-0.9917102431054557	-0.9737449859829975	-1.42573332426597	-1.7610895589234272	-1.138680574403245	0.413466005473509	-0.20630112238296358	-0.29095998332949885	-0.7924971560496741	-0.5938473924902424	0.8417493083682566	0.10973699363182286	0.07824800143751741	0.005824615698503173	-0.5013173209884764	-0.4161810268384956	0.9207978225348281	0.4427703905847642	0.1549355979822383	-0.45122635250608767	-0.6255733354986737	0.3323184243395045	0.46158370259094555	-0.2516929500900918	-0.21877917592125323	-0.35032111317878717	-0.6289427860593194
-80	-1.1840326756147308	-1.2230321138020943	-1.3003160920691903	-1.2059016197276078	-1.8104170515128155	-1.8043321325523485	-1.118372556723805	-1.3526071275893288	-0.7198805790845758	-1.3341948952368283	-1.5332418641480403	-0.9206647253633807	0.7020922285473643	0.13312879171138273	-0.3138425342265447	-0.7270877342940407	-0.5255708085142172	0.8538173415561715	0.6217033847371125	0.033453021114050366	0.0356921254687392	-0.539297042915597	-0.4380145955947878	0.9018347240567044	0.3986257602640898	0.1147049215520193	-0.5528189525952026	-0.8073421696306633	0.13539189066082336	0.2571976774397801	-0.541952668252215	-0.4118350137803154	-0.7470443229887723	-1.1259578437987703
-76	-1.0844808789529279	-0.8402971008066153	-0.8151686767024255	-0.6700886471042703	-1.3844549620960178	-1.388827201197833	-0.8718956686894832	-1.2915484872634455	-0.25236684020222094	-1.110881802615215	-1.2780758110203	-0.7217227798359978	0.7753446082566764	0.5528724775660757	-0.2536993616374553	-0.6755997521509335	-0.5160422312105464	0.5814539179426755	1.0607043477934754	-0.03606229638889187	0.007092751544687892	-0.5684680328321817	-0.6015548690866888	0.7215838414093771	0.3123036019069743	0.024203345118450226	-0.6647200567629052	-1.0873705121243433	-0.15037721357525957	-0.035861965178307566	-0.8683212377559724	-0.6583952887124676	-1.1588526934929404	-1.5877450664487875
-72	-0.78372865717426	-0.3684081425902141	-0.23757857024291468	-0.005442195558218795	-0.931805191071643	-0.9320625639271333	-0.632285891367041	-0.7753012160753895	0.30675065439978444	-0.7976131419071188	-1.0094219420696797	-0.5215336667244833	0.6168324335737209	0.8486546256573408	-0.1236836832619284	-0.634301601238966	-0.5298925624820351	0.0841312406323156	1.2371422021148586	-0.10774487229800819	-0.05589823783232213	-0.5912538751933236	-0.8790047146538954	0.43592190632432976	0.21276228076146428	-0.09036035812929154	-0.7772064785408246	-1.4091391527838184	-0.3991422941144092	-0.3434684267909066	-1.1744228571804363	-0.8166986683253021	-1.4404855930199227	-1.895566101056746
-68	-0.35930347351911546	0.053742691738816836	0.24521793363171585	0.49917766325805385	-0.6278555377367165	-0.562553881178565	-0.46699714542739085	-0.051753315943945194	0.7269180994754382	-0.5458376393842216	-0.8230188468181038	-0.37591093683701843	0.1995243425100129	0.8128048161012464	-0.04961990180004718	-0.6699983460676636	-0.5969694241710503	-0.6050811394673427	1.0229607794683588	-0.23200504423216808	-0.19571646998582862	-0.6710808856233411	-1.2171643941666404	0.07370553892123409	0.05829978719535556	-0.2644882493493975	-0.9115166045063505	-1.6922495322417628	-0.5542362914397382	-0.635533748452652	-1.4277602398110845	-0.8090278485853002	-1.5130352935737519	-1.992895598148354
-64	-0.013549345511261905	0.2563057535376131	0.437352089969782	0.5819014296145193	-0.6368958337916203	-0.428345440736769	-0.4565582561886861	0.4877684700095003	0.7872440795095922	-0.5272812233963735	-0.8360983112206587	-0.37363111878476046	-0.4524477708837412	0.36525830534268877	-0.18152786745493235	-0.8691582657804399	-0.7739309649001076	-1.4158357346074262	0.4316009570192143	-0.4826955485077971	-0.4749261426855856	-0.8782142378568799	-1.524354215588021	-0.3412127486197218	-0.2174068236822483	-0.5506280646727251	-1.0847761603623998	-1.839120264178384	-0.6326939447641431	-0.9104732848068362	-1.6056787927142393	-0.6487748606514296	-1.383734937988949	-1.889164443014742
-60	0.04969306277603396	0.1402050700224124	0.24642448065053543	0.1594110723285438	-0.9955502723354152	-0.5901741370559436	-0.62101811013786	0.5309111462540301	0.40476250546305825	-0.8162423947706985	-1.0903731557019674	-0.553984938653355	-1.2033370702879769	-0.379491834874471	-0.5761828407999169	-1.254002687149194	-1.0723043653117956	-2.1719160025120448	-0.36174905208807523	-0.8770900346546096	-0.8987344480711846	-1.2178086011657463	-1.6762356715796793	-0.75119131613855	-0.6288341863968129	-0.947213706962916	-1.2701226440787101	-1.7559597447884296	-0.6759882552245986	-1.1530799836610186	-1.6753363567015789	-0.40816062585776863	-1.1156365843262328	-1.631214495355151
-56	-0.23998705982175664	-0.24826389488482112	-0.24846982893200015	-0.6074863656918913	-1.5514531096388657	-0.9510435437986444	-0.8753474332643559	0.024867592316666163	-0.3003914348647535	-1.3147550788109947	-1.4854291639971495	-0.8442819097183687	-1.808199281895612	-1.1499103278691554	-1.1262906761343556	-1.7254384712525124	-1.4090237581918246	-2.6016695433734323	-1.0792685719897694	-1.3218493428235398	-1.3651492561205902	-1.5937130410965006	-1.556941624525216	-1.0467370722092326	-1.0854731770766435	-1.355386492168188	-1.3866717780389073	-1.3907184565717812	-0.6883056742456242	-1.3032399383066202	-1.5898166854773708	-0.15516535898610614	-0.7739791850576092	-1.2658746210562932
-52	-0.7547278385180793	-0.7194747310593249	-0.8176445344308547	-1.3759629691670188	-2.0066819140315157	-1.27625000154615	-1.051953551497515	-0.7892596701722279	-1.0467829677855938	-1.7740983918221016	-1.796320195431158	-1.0677731010181213	-2.003674263663743	-1.6438970524291487	-1.589862700263021	-2.080642933360773	-1.6217987496437551	-2.456520074364289	-1.4541050158981348	-1.631054039651821	-1.6870588021599586	-1.8387212706872649	-1.1224385471615375	-1.0953071089747277	-1.4070613348721943	-1.6027877290313528	-1.3321478333218306	-0.7712361197073265	-0.612281678561254	-1.266440030715205	-1.3099867072410023	0.09387216693304332	-0.387353419279595	-0.8189492204970492
-48	-1.2153934209655453	-1.022903201381651	-1.1828886240658005	-1.7792011454484395	-2.053575272143712	-1.3019943204432491	-0.9840767954776336	-1.5005785188935934	-1.5210536679965616	-1.9093724441005016	-1.7762623980498533	-1.0261101696810493	-1.6421669680142663	-1.6761087136866284	-1.7093304352519214	-2.105418438364139	-1.547384615806059	-1.6621962743754404	-1.3477123941727318	-1.6139237839959129	-1.682470675035312	-1.7996694996219207	-0.44328901059764547	-0.8104298690361672	-1.406412717129386	-1.5290725192565284	-1.0430390808474144	-0.01616626042516369	-0.36288645771913	-0.9659516786982915	-0.8398649075284402	0.37480649257444126	0.05209232108553962	-0.30210602207203346
-44	-1.3312163319356327	-0.9697663759542853	-1.1500377625993634	-1.60297727180126	-1.5347660741203883	-0.8769251682075772	-0.6027393325846748	-1.7421637729528388	-1.5245187244071858	-1.5479685029048045	-1.2917695012857147	-0.6130181535502394	-0.7914974073453807	-1.2597855297707024	-1.3540950979377449	-1.693000789182615	-1.1194359035839134	-0.4046830524717733	-0.813567159505999	-1.1847345799098337	-1.283392306902263	-1.4287675583052453	0.30703386586871967	-0.22097770813940396	-0.9962142680765366	-1.0860644551513223	-0.5460627065223251	0.6981676203266822	0.10098793332113701	-0.40621217982730284	-0.2509151094777368	0.7314315419803697	0.5528958425867687	0.26159790092224666
-40	-0.9543145870910146	-0.5283004032148148	-0.7009528857653593	-0.8866905547643428	-0.5352061377364113	-0.05320828022040024	0.014153362216084375	-1.3702288831448137	-1.0583647462826589	-0.7256224733152267	-0.4083790470779966	0.11269777984775915	0.280460327155599	-0.5793293103850209	-0.599126277841447	-0.9152078009386816	-0.4194788624186246	0.9302028394101917	-0.068066201932241	-0.4251804937118313	-0.591569720205191	-0.8204171040802267	0.9305179095616789	0.5114902841051872	-0.25241365965057383	-0.3855535378258568	0.039281405409342204	1.2129416435135445	0.7209673505700217	0.30027365608697465	0.33100190675135194	1.162843820497024	1.08531796658204	0.8192861655531138
-36	-0.1634744401619127	0.16014577407935152	0.0034192276566575165	0.10118163351500678	0.6469972117301366	0.9266167855709789	0.6727495772542599	-0.5167515264815827	-0.3070018283722338	0.32281783141648496	0.6251834615181822	0.9418727135720122	1.2290121285880216	0.1195575368366083	0.30628281754412356	-0.0012166105412895279	0.35435596018970306	1.9396216820383507	0.6146392210701028	0.4399025727132816	0.15726591606965468	-0.16726905065266792	1.303466435956195	1.1449098558129938	0.6048184617984806	0.3385877898727634	0.5528153763165251	1.460028287062379	1.339274045423895	0.9643952226132013	0.7724738101529626	1.5976146419243575	1.5670603474153182	1.2915464607055283
-32	0.7687750439307642	0.851320860620702	0.7071531397131756	0.9984194611137241	1.6388789373981782	1.742546196352752	1.157056686341103	0.5001162277946399	0.46506538869742003	1.2737401691702845	1.4898546896512592	1.6111549098345075	1.7973453953187064	0.6564663632031165	1.062711236177996	0.7679634670895515	0.982359287642767	2.401194566386297	1.0319197151833495	1.144488570184785	0.7052685600594254	0.33831205878672854	1.4362672531105292	1.4637566767929562	1.3073871102703318	0.8385576584625268	0.8715910889554499	1.4905148706951248	1.7631854966470173	1.3995507920215886	0.9902492140564101	1.9157494258196308	1.887671227457599	1.5988588292762578
-28	1.5067661962613939	1.3153969016243157	1.1818095415795111	1.518006797772626	2.1667797510754276	2.1507952158984995	1.3345890011470882	1.343916770403018	1.037127730612095	1.8661640835375952	1.947504753917862	1.930082435503292	1.9277175616231543	0.9815714930547597	1.465278025742362	1.1929014891070486	1.3298861946861833	2.36278676390148	1.1340928049064662	1.504552956597182	0.8998770095039994	0.6022625550323202	1.454150077009471	1.3830058539758971	1.6608018833190854	0.9736435984824906	0.9701503490749589	1.4382339679645724	1.8600746346241366	1.508486624723847	0.9883566473802802	2.0080017992820896	1.9610673139651018	1.698378797057831
-24	1.8114287807506786	1.4409396612026752	1.3250936236304733	1.5684999187922988	2.1763606016524344	2.0975825733631708	1.2187672822698932	1.812125201418476	1.313871499559075	2.014004702251553	1.9501495312091581	1.8713344288309377	1.7553875402000305	1.152288076352532	1.4891794882369485	1.2446609704064222	1.4066940510520156	2.0712747521557877	1.020418879793685	1.4952568970121927	0.7654378990875051	0.6708030683747445	1.5060459337357466	0.988902208692532	1.625640745826987	0.7767348269879076	0.9285777187744936	1.434727784349157	1.626538868612195	1.3281863894307704	0.8519418814130488	1.8356052590755643	1.7741346314460336	1.6074887473529191
-20	1.6474057394396384	1.2745771375901076	1.1893143623842328	1.2702379194614146	1.8356299353984389	1.7331396297566284	0.9555897092534751	1.8975626182331018	1.329248901825854	1.8205462648203716	1.648578043590121	1.574471827346557	1.5058262310156592	1.2474272219634641	1.2705897060739908	1.0601277324613743	1.3440906967560333	1.7953574612111767	0.8572872259430102	1.2392263381188129	0.4766545581704185	0.6867390853709479	1.6594043928212099	0.4916681634887292	1.3138378825395067	0.4260521520348259	0.8774317480822442	1.524706836665622	1.1878052919916195	1.0040059064311933	0.6968180519630851	1.4514712058614494	1.3981168234812027	1.3953444922504092
-16	1.1806687086813905	0.9788156127058827	0.9303682422990257	0.8643365480535082	1.4248745405462144	1.3232020106286575	0.7455447297346544	1.736861701394875	1.18798160253042	1.4970953426710032	1.3013955321833472	1.2665550676793311	1.3583652938879622	1.2909438577483705	1.0058495972987307	0.8533162453088099	1.3107978072450581	1.6546947914308177	0.7722473721080326	0.9220465398397198	0.25467333133294856	0.7953470925277693	1.8489191485454288	0.11586693645072353	0.9112810469507929	0.14355951511377388	0.9190005636854534	1.6370506245289538	0.7303754668869057	0.7117566448361354	0.607331810848379	0.9741492246828436	0.9578912830010211	1.1495237321441183
-12	0.676277874192831	0.7376074176285345	0.7136812192064289	0.5717842564451775	1.1792013615400148	1.108335969033996	0.7435188274684985	1.4960473738092082	0.9898347233576885	1.2376930682404819	1.136866209020863	1.1449153394402993	1.361273285289922	1.2371355263946604	0.8341075756948315	0.795943973439043	1.4177662098375376	1.5706416328829609	0.7807798961953768	0.6871035081681846	0.24654324290495055	1.055451986509129	1.9165205907117877	-0.016426162752760293	0.5735818133177754	0.07803692648973946	1.0697594854048909	1.6311203200166438	0.4041785885619904	0.5698819742119737	0.5967240318491296	0.5272577391663913	0.5734682664697649	0.93446016075717
-8	0.3585551968104944	0.6632553918305375	0.631578622653922	0.48139694211535433	1.1697081297906062	1.1851563423751996	0.9863278840911823	1.2724148002924054	0.784361241267664	1.1206461162883774	1.2406539885668686	1.282504793743798	1.4409031831601649	1.021887180609375	0.7708622197715944	0.9325805878935682	1.663959856600602	1.366591688520513	0.7883546332482434	0.568372963424005	0.4539511490327928	1.4063425028580179	1.7174767212420963	0.057761937234002164	0.35321405440797915	0.23584304690421024	1.2556934324986242	1.38869261391027	0.24970298942464478	0.5877996668280212	0.609303174864703	0.17912946596219317	0.30430814547002283	0.7625057678044722
-4	0.30633515042210424	0.7500079255241672	0.671130953524826	0.5235420452251195	1.2866731849609963	1.4684984646914456	1.37752639899553	1.0645879480186557	0.5751805290959044	1.0896663638260053	1.5258362254719746	1.6012042720422477	1.4837681017607427	0.6441394074389509	0.7280840259289459	1.1738541096614254	1.9488258312613285	0.9382613873634785	0.666374622093048	0.4983066903884725	0.7492362241902085	1.7084329085131595	1.229071971651225	0.17944972171776277	0.1991269732454598	0.49629464620219194	1.3641030753981338	0.8995969272789069	0.193075373281338	0.6786290986093496	0.5639629349774976	-0.08071368912345751	0.12890724805234047	0.5963002428258465
0	0.4352367509343665	0.8932512379982059	0.7416663151135565	0.535976408558899	1.3258125748539389	1.7484533742629478	1.7327862934232918	0.8173582533227213	0.35666730909896754	1.0159581873992465	1.7946225359429517	1.9217300366520043	1.4225872719133783	0.20807807094968236	0.597734747808034	1.3642874921686032	2.1380329078099938	0.3682136824371253	0.34993725926740277	0.37674835229167597	0.9629247760303049	1.8307059957059757	0.5892178401375816	0.17193767384988043	0.019414879332638788	0.6965348106918275	1.3186385598268855	0.28613108324289	0.10785611691661999	0.7241386752919343	0.4114815582376897	-0.3169988981826564	-0.029745468794705247	0.3798935403769206
4	0.5640998468462011	0.9546997523045807	0.7365280371190221	0.3729262640597487	1.1183857889549118	1.8031821205389555	1.8588710976398706	0.49744954579644407	0.14419196509672758	0.7927702645313455	1.848299379450619	2.0540745206470903	1.2670128313500504	-0.11633999616336967	0.33446884070828176	1.3759901488849675	2.137226576177508	-0.09585045253872444	-0.10880791368431277	0.14779844842788545	0.9835430954896622	1.7283709005587684	0.033361926590612066	-0.04954254614719493	-0.2413078987466445	0.729123888559072	1.1303236455989658	-0.2534677379884429	-0.0988289189823726	0.6485662443952425	0.17004401938898608	-0.5954368099438101	-0.25068688329346805	0.07850465903727223
8	0.5243378864401511	0.8379588105979804	0.5937126859933902	-0.004078962829841474	0.6319701655644628	1.5084334573808416	1.6328118998310985	0.145273163547901	-0.02409306535002329	0.4055984009992779	1.5855961998007706	1.8823970508733199	1.0739735337798715	-0.1925691510345387	-0.014177999423411051	1.1737033099105243	1.9317437361582774	-0.18862831544935743	-0.5604598508036028	-0.16265165764751055	0.8116134384644839	1.4617245160391146	-0.23073424340644283	-0.42792042981827116	-0.5586813078126404	0.5946341141946465	0.8911764003188131	-0.5483068809970975	-0.42821460854181737	0.45789152268197825	-0.083154469518525	-0.9358218884682705	-0.5659369215981852	-0.29730337783138183
12	0.2469501191103213	0.5332097993739895	0.3217489115221042	-0.5038114177381608	-0.013273994404836587	0.8924649931309588	1.0529398891567678	-0.13566032017789162	-0.11549726099417931	-0.06051446482161905	1.0445991728158266	1.4104907477053328	0.8895950890969143	-0.012900642086777058	-0.3443335882076371	0.8219584205855821	1.5813630779395098	0.19434283624696425	-0.8403806665183795	-0.4671844232208023	0.5441045747371078	1.154140588707474	-0.13497322763697805	-0.7963228801649236	-0.842332420606622	0.38574996493221814	0.7193596344905542	-0.5415791259443506	-0.7889960388290519	0.22768852057191605	-0.25550511414868904	-1.2942274776207565	-0.9389690137044654	-0.6932774764677212
16	-0.21648028438271533	0.11203917832697628	-0.017401609525853137	-0.960625884491767	-0.6177052839896079	0.11367771000771489	0.24382203755808407	-0.24635139045506416	-0.1413645144708172	-0.47861766694346203	0.3720493307257048	0.7505303602343044	0.7156589609197278	0.2691053741336541	-0.5728120193324446	0.43568068632753276	1.1766334742402846	0.9143202877802168	-0.863394913877724	-0.6801751238816304	0.30287653131309955	0.9119599438530706	0.21656565313497936	-0.9763364171173544	-0.9972817872617686	0.21633033399800022	0.6852312070712271	-0.31208351175669685	-1.053200480663068	0.04971311973895024	-0.29250216410220126	-1.5843046863610382	-1.282144424062396	-1.0371409628432018
20	-0.7382666449980859	-0.31635460177658353	-0.35012724907214465	-1.2297952144091036	-1.0148090098508784	-0.6176728590629319	-0.582484184225017	-0.16598308044488563	-0.16867789583534445	-0.7601200919033605	-0.2527866655166365	0.07166942935968625	0.5223650919123561	0.40479534762224656	-0.6984441858777417	0.11271742702874364	0.7914373854682434	1.6523189502960691	-0.6722543818667162	-0.7774001936358554	0.15849396546402272	0.7617446760972568	0.6094369872918859	-0.8832264520280326	-0.9886782740426762	0.1457506861583134	0.7657498697974718	-0.022820610495409697	-1.1304823131629573	-0.025279300223541815	-0.20918185956116864	-1.7226536230463476	-1.5003855190542978	-1.2716078726134734
24	-1.1908352344964819	-0.6605873687278376	-0.6307294948865956	-1.2650314537534293	-1.1567074031236009	-1.1316083641092112	-1.1981841295508646	0.015176439619490523	-0.2910283200545613	-0.9053855515509437	-0.6972885114231095	-0.46526658417535144	0.29413866922502263	0.1884051854622041	-0.8041720966062879	-0.11143615813730615	0.45739441994580654	2.076770777227361	-0.4112997938739061	-0.8120607713223937	0.09553714072425364	0.6404420717282235	0.8386996367260233	-0.5749269709376701	-0.8673046805418946	0.14534270726701712	0.8535573460963176	0.17240105525835558	-1.0163432334035234	-0.01415610775502741	-0.08292881378455569	-1.6705571370862649	-1.5368207654298982	-1.3768043483305439
28	-1.5066992006408355	-0.884165523204098	-0.8561359622320802	-1.1358669967583712	-1.1259083719437315	-1.3612310852015275	-1.4427225553326954	0.12971593406828885	-0.5735176787201589	-0.9954305862090084	-0.9206174588801932	-0.7620722036194707	0.06132552757277184	-0.41504543914910197	-0.9989048813395494	-0.2650502317412434	0.16668589371081904	2.011725659059675	-0.24218217967400257	-0.878089962172837	0.03601190066186151	0.44171589501438274	0.8124861696710817	-0.2209090584899572	-0.7396620493333995	0.12474212764001627	0.8155263045701749	0.20645907469121957	-0.7877880314964391	0.016866285311315725	-0.011843202605744655	-1.4488550387995733	-1.3953690493639948	-1.3692012990714804
32	-1.6895225005408843	-1.005846855485078	-1.0488839122993325	-0.9758921240963204	-1.0686441632946697	-1.3486736978812421	-1.2838730779658074	0.024652704534277373	-0.9987271402892779	-1.1287977666965683	-0.9664511060156035	-0.8068592527999123	-0.11377184064273876	-1.2254742353016659	-1.3337537016573149	-0.4010508050329763	-0.1025693115982609	1.501151438737728	-0.24849378999913938	-1.0425412628555073	-0.09580483263384465	0.09236989146991725	0.5786834344558655	-0.0058121774198892995	-0.6993488651738585	0.0012415104979969028	0.5702926502134392	0.11632870853379382	-0.5508292899529786	0.00365229788245526	-0.060572583075418615	-1.1193129988066968	-1.1292340726952226	-1.2802429166895724
36	-1.7799465611341188	-1.0697172853164965	-1.2237099378207688	-0.8970729686022655	-1.0950683327683604	-1.2006862133229288	-0.8318551757791011	-0.3422389915885511	-1.4512622319773947	-1.3440769876877696	-0.9168235636451735	-0.662630973573447	-0.1835278267995152	-1.9173387240639093	-1.747620697377538	-0.5469505177040132	-0.3558734646395308	0.7516134958364281	-0.3876232197034896	-1.2912858691992282	-0.3100454501430375	-0.38656559488926534	0.2758828096576956	-0.02445302897478395	-0.7635980825218682	-0.2328601771674404	0.14283131026923027	0.003992081144058814	-0.37396496439930454	-0.06412000937962407	-0.22109362427203824	-0.7462351899379892	-0.8042002299985508	-1.1277480096954347
40	-1.8053019001203956	-1.1072571249662853	-1.3627358640597278	-0.9245282388233224	-1.2098358839007193	-1.026015994342542	-0.2996803514543784	-0.8606677033629117	-1.7593018964218372	-1.5803972442780079	-0.8411428907138427	-0.4355311978788135	-0.16275691944991813	-2.177375787959686	-2.0831747002458605	-0.6801562888139289	-0.5708801135908623	-0.003103263668331547	-0.5231254087591913	-1.5261779985042538	-0.5340918885097935	-0.8748598076666796	0.04085304205236021	-0.23250178934047203	-0.8583272673870701	-0.4919674384093909	-0.3377625337656093	-0.03403405836572479	-0.25184023316695997	-0.12761416999068667	-0.413666694311961	-0.3656276753254293	-0.4635772395350701	-0.9035771466330241
44	-1.7513307288775704	-1.1152169676280734	-1.4161040747175275	-0.988752839453102	-1.313282605670181	-0.8875465966704457	0.08040679970944505	-1.3061614003582653	-1.7705029204490383	-1.7018296675630344	-0.7666862587645291	-0.23395478666365443	-0.12656228212350754	-1.861604805060947	-2.1652951185871103	-0.7410770635967947	-0.7069071513448086	-0.6121581181329466	-0.5112983571494949	-1.6148762662170189	-0.650732038762333	-1.207539912989768	-0.06421479566573883	-0.47494047760261787	-0.85967480919275	-0.6390619857865785	-0.6967062336497688	0.038574125520352234	-0.11736655950716379	-0.088943548275977	-0.5257444964486543	0.02219470771013902	-0.11368121923116717	-0.5853982553007285
48	-1.5767663677460373	-1.0626490089290077	-1.3303790058879421	-0.9788828467450196	-1.2710435358381649	-0.7895310501192051	0.1526688780506367	-1.4451433383694912	-1.4276267254071247	-1.5748894174867991	-0.6812802535976207	-0.13153648343255075	-0.1537923063925269	-1.0690999004074717	-1.8993734073368063	-0.6740419251590171	-0.727495430063275	-1.0321296427417184	-0.29319047853832964	-1.4658900462333706	-0.568752585405621	-1.2590994803110696	-0.06428977085809638	-0.5720869884352273	-0.669061539868094	-0.5646603689242536	-0.7984097579825307	0.1891963328114716	0.1067835164354337	0.1287110295622353	-0.46900588155589473	0.43338191399828413	0.26201626592286886	-0.16572953718781247
52	-1.2577736345960333	-0.9214981175045261	-1.089059707753013	-0.8205004313734123	-1.008114454585188	-0.701363382952891	-0.09839202438785263	-1.1559311122320062	-0.8085991123765133	-1.156012174548696	-0.5623113498795862	-0.1478712704024559	-0.25411972339367245	-0.09780756359440257	-1.3348011936819528	-0.47135537743771916	-0.62429314694142	-1.2695255247488577	0.06198653935637173	-1.0871883603303696	-0.28560426759137275	-1.0134646866960084	-0.026830552078098105	-0.4186800111690393	-0.27976229716239676	-0.258591770472912	-0.6146069749573608	0.35095006138886914	0.44872784501270097	0.523745356667935	-0.2276143276905192	0.8686406590465172	0.6694741828228322	0.31809103408611855
56	-0.8337888696600222	-0.7025454622650921	-0.7426698189104615	-0.5338339792125015	-0.5718497619496202	-0.6002147778615871	-0.5499928579749574	-0.5066683279596771	-0.1120266837033468	-0.5401073680592726	-0.41269239679092234	-0.2539048486497997	-0.34035718355077593	0.6909410936077143	-0.6600859148526083	-0.19557985614034834	-0.43128868828602446	-1.3085199561460727	0.384670703631995	-0.5976421817949316	0.09249439067137752	-0.5830771312297456	-0.0022128727231184395	-0.041960183425106636	0.20163676091784177	0.16577942627536352	-0.24390758512428196	0.4684256899451159	0.8543000795729886	0.9933037732795026	0.12359857527998461	1.2889038291814385	1.0731278630819334	0.7738186101449896
60	-0.4189631332310076	-0.46969899416591543	-0.4037963737783332	-0.2343839550061149	-0.12232065169922668	-0.5022552596762938	-1.006641862235085	0.2584284239443175	0.4129774262015186	0.06379772706613722	-0.27786767412602725	-0.3959147026079707	-0.2774935059693944	1.0267769072358235	-0.12746116486793455	0.03715535988963595	-0.22097402755259837	-1.0942978831319388	0.4929770218800475	-0.18172588898553743	0.3891596784303081	-0.16466933447270815	0.008452097863971154	0.41175612703315434	0.5951446875805034	0.5136120306398998	0.12935905125859723	0.5245113359560096	1.2015936344326983	1.3635556663418988	0.4431725133197261	1.6164007146079453	1.3907846177273149	1.0775877210113471
64	-0.1606028075931741	-0.3191751829672009	-0.20377914556075583	-0.07082153093815526	0.14751157127330577	-0.4621555197491546	-1.2965977159189104	0.823710201091108	0.5616461024409276	0.4225747276604421	-0.2325003290266787	-0.5265799151477168	0.018531329883041535	0.8282561281273602	0.05570623637082416	0.10485547754517137	-0.08407450446121327	-0.5859487041938395	0.2872460179229211	-0.010898412177763028	0.43622302898897475	0.045096240823852746	0.04343879584431661	0.7481538038438202	0.7276630979286048	0.5976711496522192	0.31712788263362474	0.5387552366959566	1.3571118082115006	1.4629610739965029	0.5812013730633998	1.7660784676785317	1.5237120351468323	1.124616858503999
68	-0.16716279047246288	-0.33292651092396774	-0.23129358829276406	-0.13860741222672535	0.11656475782766959	-0.5402752147385363	-1.3479164804759274	0.9477918720157775	0.2536531978401933	0.390138297288082	-0.3418599954557036	-0.6248887761551566	0.4931713032192024	0.2060284162326435	-0.18524269712885713	-0.06353092922621557	-0.09456915384496463	0.163979515019303	-0.19866229543596406	-0.1696373667010327	0.15465010663564618	-0.06074979513446903	0.1401897814310661	0.8182419517839301	0.5131938444532115	0.33145180260898066	0.21508800929124453	0.5440890775295054	1.2439256875103295	1.2048436372855158	0.44782417899554283	1.6907710986364868	1.408799167890878	0.8844552613816197
72	-0.4442938256967321	-0.5301211462941716	-0.48299750563746685	-0.41869258774905516	-0.19481797467159168	-0.7586800436892228	-1.2103114097555367	0.5799518212934833	-0.43422442565005714	-0.018538434011622765	-0.620286820752957	-0.6986382586006404	0.9464758014624596	-0.6165491923024633	-0.7655943016750009	-0.4512047756247335	-0.2770316593805183	0.9776786541096626	-0.8131309131119893	-0.621181307654843	-0.4035529782120074	-0.4518218625105351	0.29746538325547234	0.5839714989223422	-0.007618705257164469	-0.22315771821423747	-0.14964926205045562	0.5605347738418963	0.8842755533780756	0.6363356693414355	0.057966992112672984	1.4141968452988198	1.0627353164544244	0.4284085322531045
76	-0.8772301651741228	-0.8451070764185559	-0.8547920563097225	-0.7764264325566185	-0.6287823303559892	-1.071023699917385	-1.0125279401010834	-0.10987682612811289	-1.2918006149102088	-0.626357315389425	-1.0073760722475744	-0.7689003328937658	1.1300191850742218	-1.4070620501279298	-1.479485388835154	-0.9508191919162763	-0.5882566556383604	1.6107845265728085	-1.355002757466093	-1.2218191592839776	-1.0688666078284097	-0.9721478795302733	0.4735715377295177	0.13097622957539895	-0.6826787573744548	-0.8739515520918854	-0.6276962741262788	0.5904788956039106	0.3983281542734776	-0.06826084834984421	-0.46508765103218747	1.0352749798385745	0.5940157160066631	-0.08663474001468964
80	-1.2749544349905833	-1.1480421990973217	-1.1824845045752437	-1.0256777975889404	-0.9675003265749357	-1.3689722980268315	-0.882418689884076	-0.8052526692086927	-2.0496532865273935	-1.1702456444758338	-1.3794922793845485	-0.8460056164362763	0.8934534169527736	-2.0015432784091134	-2.0837111420474845	-1.3997652495329491	-0.9239524579562457	1.8729033422867545	-1.6634232955896886	-1.7765722229926137	-1.6184842545654534	-1.4064602816357967	0.6151781066621567	-0.3790519227948169	-1.311548468139464	-1.3767257894089282	-1.0116703484742202	0.6297097786263527	-0.044248513765675054	-0.6731631738833121	-0.9344722008953842	0.6932505947729954	0.16657607215309764	-0.4789176571198592
84	-1.4542207681179964	-1.30226111083259	-1.3162854876663836	-1.0256180737350262	-1.04358005260203	-1.5283076724567017	-0.8804323651019511	-1.1929693191926318	-2.475359195181593	-1.4178678953612678	-1.597342844744868	-0.9177600718215199	0.28729453610364575	-2.3252065123026355	-2.3874838291925196	-1.6413983065171835	-1.1582866877875824	1.7285289720763135	-1.6811103778356824	-2.1108057445639163	-1.864961857855511	-1.5763308962124079	0.6908012015067796	-0.7823609689986969	-1.7239872173651851	-1.5400320252637094	-1.13167369079972	0.6774123293939769	-0.2970045797478772	-0.9804285143894326	-1.1794557541632738	0.5063982593148816	-0.07361838202963134	-0.6236001833430108
88	-1.3253453936493689	-1.2292230098207046	-1.1911081045595746	-0.7568745593988899	-0.8197369554804119	-1.467649694551987	-0.9778954362021635	-1.109464523375324	-2.452537053591875	-1.2643319336441114	-1.5637048443415145	-0.9529826617022265	-0.4439187038657853	-2.367162698491262	-2.3088188113094645	-1.5824240406138332	-1.196951267081443	1.3132082190736891	-1.4635713063481726	-2.125067467092606	-1.7263797478004288	-1.4149868452586785	0.7079275828607869	-0.975875196377247	-1.8358192397497677	-1.3032127585886715	-0.9300554371240343	0.7386825662082785	-0.2951506070791419	-0.9122852063987886	-1.1189153166177594	0.5186967240589164	-0.06784542632855037	-0.5099132048130568
92	-0.9331584549232067	-0.9463677978463992	-0.8557311274857878	-0.33514791642449326	-0.39728897709676475	-1.1896172731882166	-1.0875085564812945	-0.6109909399819018	-2.017125363025534	-0.7658171038366087	-1.265066620493758	-0.9173449850763521	-0.9804958080332141	-2.148985380469109	-1.8844485235320199	-1.2244076697907478	-1.0181021664664043	0.8451564886689499	-1.1402342290700378	-1.8177659465671985	-1.2506700722589266	-0.9880040263026793	0.7036430221912151	-0.9471807455944383	-1.6631363588304644	-0.7547646741884576	-0.4822702097637538	0.8174944499356892	-0.07539205979147631	-0.5394841418950745	-0.795261798281311	0.6792984587684873	0.12546995250495038	-0.24482506451783195
96	-0.43365344295687286	-0.5577788934930193	-0.4459884155457404	0.04683998587822516	0.04730043548324283	-0.7811723927802318	-1.1208312483145824	0.0672018675299547	-1.3373478617281964	-0.09801051740935036	-0.777348158781098	-0.7921354750660902	-1.0932124825533194	-1.7151752667038394	-1.239097115249266	-0.6589449031405538	-0.6809747201892734	0.4926610576588909	-0.8511716105905612	-1.2733613220490487	-0.5874095544289513	-0.4537612784373402	0.7169864159601691	-0.760946331487151	-1.295210835047778	-0.08580143728051118	0.0449299997447036	0.9074254013039418	0.25098964508584026	-0.041603185131416066	-0.3503511241173558	0.8695446230868985	0.36173298863634884	0.003334801635667273
100	-0.021841781158734388	-0.20201076516170188	-0.11537892342285715	0.217111110139103	0.3592585316170683	-0.37068018223634847	-1.0356270048697291	0.639747439199765	-0.645488498965391	0.5336995707388723	-0.23167115391414053	-0.583510397391524	-0.7545361499809656	-1.1469259233127864	-0.5339568243850734	-0.030057150794674588	-0.2948026351638217	0.29334765598620555	-0.6909229141911036	-0.6260324104715747	0.07695569823624372	0.015139456800145916	0.768300114122393	-0.5158858882276952	-0.8465459921444456	0.49657374495064804	0.4774885463580102	0.9939132903754369	0.5561632499958167	0.38196900390508204	0.04714365664142789	0.9654135083619731	0.4885789441647874	0.09539756899828385
104	0.1558358516334917	0.016437051776275205	0.041646025969740215	0.11282046855813894	0.48097121594112097	-0.06455244852695832	-0.8469998219086197	0.9216095781899747	-0.14994004330925823	0.9829973553634767	0.24190553961713723	-0.3156076959747889	-0.1277811673037645	-0.5758093580966972	0.08332385846796839	0.5184369670176411	0.040117744255106245	0.1787202204721986	-0.6800701004978013	-0.015241398437583374	0.5905367121091968	0.3117733291860688	0.8610351063923795	-0.29836961551675445	-0.41337960854112515	0.8536196925545952	0.7187401634189676	1.0696203681643364	0.7538112978976822	0.6053202733015777	0.28675052451215427	0.9024131871327891	0.42999699603235814	-0.0015574571404399639
108	0.061479057961454725	0.07343226652679007	0.030738871466991342	-0.19125427257411332	0.46379279973235604	0.10039725874348479	-0.6022838338904513	0.9133559442348305	0.03401520094628158	1.2058298557354794	0.5632553086365109	-0.014718815647157105	0.5447317944124958	-0.17234587625859407	0.5103327619065715	0.8871736504090276	0.2854834787790404	0.07536725680873177	-0.7749943117602159	0.4491333950147288	0.8816790558489256	0.436471997589573	0.9952339504863909	-0.15654979606680877	-0.05472305403244609	0.9569549536386085	0.7902559022024885	1.1478152246105902	0.8269546607119754	0.6251226051760201	0.36814695503746775	0.7068365198409281	0.2284757638169606	-0.19427706252162066
112	-0.23004895390602914	0.024612871867861638	-0.05825556054904388	-0.5283027874005998	0.41483276977708033	0.16115668375335104	-0.34804692776544627	0.7741332034593199	-0.08910427965078863	1.2438389031477557	0.7189053874938678	0.29719230457612333	1.0736744376731437	-0.09139471478037037	0.6996330005147854	1.0392457220541964	0.47332417845432434	-0.0074901524742084225	-0.9033442712864747	0.7029178720847085	0.9605655645914066	0.47324955343925396	1.1732132405224185	-0.10275188062474697	0.19956608066241147	0.8710296132030833	0.8033426979763323	1.2577898470593714	0.812516329621262	0.5400365577414582	0.38918355009048033	0.4743750381413837	0.018053714140371893	-0.3149335078394366
116	-0.5796069488196837	-0.04037567962943023	-0.11418753088493341	-0.7351385336435263	0.4137238551661563	0.1880613411685242	-0.11358384759359182	0.7005473357633315	-0.41917434228923595	1.1666558951486543	0.7417947631227232	0.5962166175094378	1.3926362956172322	-0.39805883068674003	0.6517668946023105	0.989738521461264	0.6669724566786358	0.02878709688965229	-1.0068770621627747	0.7254394274515836	0.8832921363464094	0.5212238417817231	1.387992497754506	-0.13520497049527966	0.3265019348961056	0.691774426144215	0.8797042347632132	1.4199956619650875	0.7535099368144588	0.4732801902265912	0.4761667537588083	0.30508893651228675	-0.060039102879574285	-0.21930217687551445
120	-0.8542959072478649	-0.058879073560594124	-0.07614955286827248	-0.7465698104129135	0.4520380783589119	0.22589459958264033	0.07976561019547322	0.7862289528069855	-0.8220122435796784	1.0134948466461886	0.670376001096007	0.8413466193891707	1.530506368587625	-1.0222042773187794	0.39885812897115996	0.7774265984934243	0.896204469325436	0.2848547689875369	-1.0762989493852675	0.5244088755718994	0.7008684259839258	0.6189326628317239	1.599027868048414	-0.26486074857598085	0.2904272072135191	0.47729918240203684	1.0650386783413093	1.6129409034060482	0.6476277692656234	0.4821171152340347	0.6945435983288435	0.22955551685550188	0.04644890490368001	0.12056922882156852
124	-0.9812052225135397	-0.032087337144662845	0.031154062520287264	-0.6321336015000244	0.4363309133957458	0.25742700630997445	0.19752003202637242	0.9533435678254302	-1.1889630526088135	0.7748110274779944	0.5184995518944973	0.9681241487855798	1.5264422854985207	-1.768390174215664	-0.009211375354815775	0.4407484222251536	1.1093894215230966	0.7421994190550817	-1.1578181952808306	0.12222266166346334	0.4259515095923767	0.7073333841585213	1.7226034359355733	-0.5210731612401113	0.04561969626352923	0.21311750954226755	1.2869549957207826	1.7613871053093948	0.4293489743359962	0.5107746111371759	0.9943275426555799	0.17457720593244966	0.25337594683572057	0.5860006198393078
128	-0.9656130647121773	-0.018893733572941523	0.11552949220576023	-0.5567378983746454	0.24929422077180718	0.21023869461385164	0.18330952478857648	0.9974730585663699	-1.4706485234323552	0.4188031841671567	0.27174675396020664	0.9028490758989309	1.3648921216836785	-2.391382211369567	-0.5156547414158399	0.00789389850441379	1.1787955731194084	1.2101012437785894	-1.329035636407386	-0.45100530868149624	0.03219473353840605	0.6546379311246029	1.6557773309864952	-0.9328657365134538	-0.4412190306967895	-0.17248672203384272	1.3819694484151595	1.7613666013116438	-0.002388812828365786	0.4137782742066988	1.2227978675487186	-0.00998683643799863	0.3713061502141992	0.9619720553906205
132	-0.8719976522364363	-0.09234339720538148	0.07689032684225136	-0.6851764900074614	-0.17075972215931962	0.0029220569339380473	-0.02258215838929748	0.7215102892779099	-1.6738431411444357	-0.0616254097157506	-0.0899917034022865	0.5953255876769401	0.9835204457247048	-2.705733292424051	-1.0661827298902398	-0.4980256246867437	0.9627699231635695	1.4005277121469908	-1.6532394844276561	-1.1571276158682064	-0.5167341815299968	0.3283891967588639	1.3278343643996158	-1.4990392885508	-1.1627866000381841	-0.7542875986128799	1.1783777445605879	1.532258149093151	-0.7234058957909157	0.03860706081179778	1.2010884254648577	-0.47254755973718415	0.20243808576017897	1.0454308960269225
136	-0.7840346078151196	-0.28591933774286	-0.1275085654615725	-1.0820569964746116	-0.7780727128411583	-0.39266469975515317	-0.43744867929639664	0.08415110388013684	-1.829474921375893	-0.6130801423806492	-0.5549723491962111	0.0626421420184719	0.35765573292078234	-2.670654766969403	-1.6130511719986043	-1.0411021683156836	0.40256583589005207	1.111964580589471	-2.1343464797492326	-1.9424781750273548	-1.221104499594925	-0.31341043035533644	0.7604773621432421	-2.163630480072026	-2.0512196965881357	-1.5441317519302995	0.6003402456385224	1.075737950470058	-1.7192416147694396	-0.6726390702431253	0.829901931574743	-1.2655084101197178	-0.3429004243299536	0.7587894182121095
140	-0.7692506889948709	-0.5654064998656682	-0.4528041470539535	-1.6666645961643909	-1.4322699272234045	-0.9178255773259627	-0.997099456653861	-0.736415563154615	-1.960052842913586	-1.1295577259155358	-1.0611705753237315	-0.5911124333716288	-0.40720754759021643	-2.4096069275100773	-2.1202497428768643	-1.5652314384996475	-0.4132477630672149	0.39526581664426164	-2.702778809399284	-2.7373645236521735	-2.0183289000098004	-1.17585241497712	0.08858848340794645	-2.821358196764695	-2.98694729050861	-2.459470504273222	-0.27499556472013165	0.4963350581512476	-2.8609604763277945	-1.628105040254359	0.15736715455855008	-2.2944047393091136	-1.181660053130792	0.19944521734427334
144	-0.8659481384348764	-0.8463106134028219	-0.7908453921378288	-2.250210517924111	-1.9705617378074027	-1.4465154372887565	-1.558312173723721	-1.415732976200093	-2.06782936527789	-1.5042929611373281	-1.5140709838787543	-1.2021315067457934	-1.0710133287092203	-2.1512038653420475	-2.569158309172068	-2.007043833433678	-1.2648137775912591	-0.43153089175945775	-3.2408416189386333	-3.467323532887085	-2.794168942072599	-2.0564680047566477	-0.48763856168654035	-3.3558709536701845	-3.835131158682703	-3.3462891494188636	-1.2406033246189374	-0.03800232698859467	-3.9413502116829586	-2.612504714091926	-0.6316975339199485	-3.3432555114260345	-2.085821146467206	-0.40505015747801804
148	-1.0871094437808861	-1.0442596647600433	-1.0325461599983572	-2.634476893449293	-2.294148200918648	-1.8454321576255828	-1.9493726442711172	-1.6535307127212935	-2.148406023323355	-1.6911358790615911	-1.8287202073656523	-1.6078989465172275	-1.3601534332267093	-2.119059318914416	-2.95831584183517	-2.31935023675895	-1.8893121433241227	-0.9348683333635613	-3.6384069827725236	-4.070956696722555	-3.423757544456429	-2.7299773624159416	-0.7924585322399572	-3.6927702333676913	-4.491645801647966	-4.041687955188785	-2.046601051885441	-0.37234386707711875	-4.755949008378125	-3.3808698568816045	-1.2983273234966357	-4.165878762217763	-2.7879326273147846	-0.8114377239721297
152	-1.4267709219196003	-1.1247543068145043	-1.1277588577407562	-2.7173972061214093	-2.4169101654066774	-2.0400900789251954	-2.0478191324029957	-1.3478484119717657	-2.2122421208794694	-1.7344355539400629	-1.9715644071392828	-1.7157878832412943	-1.1250364752021584	-2.4265472827682104	-3.2955267346147754	-2.491481059459737	-2.1025989002548027	-0.8171592334143187	-3.8484787843814257	-4.515855300945973	-3.8221199415982436	-3.0482432765293894	-0.7625510673343872	-3.8362426660956683	-4.916128622994463	-4.4435925371513685	-2.5095505651056444	-0.4398295570236161	-5.189556585560959	-3.771860113157633	-1.662470098112847	-4.598227012468962	-3.1102967183740624	-0.8853821136055369
156	-1.8593344641471845	-1.1204982967697077	-1.1063852282247122	-2.5466053421574757	-2.4468853411885414	-2.0481052346971955	-1.8455364657536764	-0.6708440763702463	-2.2950630130043512	-1.7452011064336346	-1.976097459572296	-1.545415159138363	-0.46099650743442333	-3.0289778632937283	-3.586104383951328	-2.553378098716914	-1.8925070714853067	-0.1267803904193512	-3.9126992126860816	-4.804281699448724	-3.9774992365550697	-3.0060934944550213	-0.48496180650340287	-3.867994298705933	-5.136212812807456	-4.5509204749602254	-2.58939933123095	-0.2942865185460147	-5.263572202744693	-3.7801868820117317	-1.6866062836979663	-4.632880676016724	-3.0496008319153662	-0.6701496822603662
160	-2.32917522796034	-1.102910635070948	-1.0473139259599125	-2.2837681712665105	-2.5091335710118483	-1.95732855302636	-1.4593654834141503	0.015262762977391112	-2.440396064318939	-1.8310425235295278	-1.9170491647003214	-1.2150304286797795	0.31042700927560385	-3.7493631745089875	-3.8184201620970866	-2.5541632110959136	-1.4233748876874517	0.7397198062340411	-3.9343657394258122	-4.95994852721122	-3.945348491244397	-2.7330644061703544	-0.14720581434754118	-3.9006652733548917	-5.217236028850451	-4.44905232259901	-2.390539401694571	-0.07296158354934837	-5.112524496522048	-3.5444464594044045	-1.480067487794561	-4.410822857210911	-2.7670328547235084	-0.3572216918986238
164	-2.743390314805173	-1.1256440849494647	-1.0162645552726186	-2.0990617222241825	-2.6539435319652083	-1.8592849922921457	-1.0716592046383757	0.3578611007238374	-2.6593627862545044	-2.0174949118222085	-1.8537927819178288	-0.872840223492854	0.8023495057829475	-4.3538637051330396	-3.9527492423396033	-2.5228781636437727	-0.9412910914497624	1.2548184363155306	-4.005915154833546	-4.999350058331224	-3.804095497063673	-2.410762065522908	0.07181272637594509	-4.005204667469617	-5.210539327817553	-4.247691143755591	-2.0863141960875433	0.08800075926020316	-4.898825633078432	-3.2560083783913076	-1.2221018045087888	-4.132535447177435	-2.4886696275820697	-0.1736561800625445
168	-2.986151449293578	-1.1796596020478909	-1.0162030432793656	-2.063226217782798	-2.8111040521220048	-1.7819130375695835	-0.8323310592617863	0.21257895177575922	-2.901344291991216	-2.2140479031930256	-1.7801523163673638	-0.611908732299836	0.7790056447388273	-4.6461682202336645	-3.9270183940921894	-2.437658303782028	-0.6341651066027749	1.0754004689721917	-4.138549794238666	-4.908656584744285	-3.6013147740038676	-2.165308231608928	0.10420767936622677	-4.157862652771449	-5.113562094175679	-4.010314454444021	-1.8144669486964993	0.13238111104920794	-4.715994346156003	-3.043988220158907	-1.0515438291703634	-3.941040267530909	-2.3757748543838253	-0.2515901916827585
172	-2.9545922204761625	-1.1881775826019467	-0.9805922483482171	-2.0981771892979486	-2.8174135613834186	-1.663484092327206	-0.7742335776808682	-0.2672121816087556	-3.055000297462647	-2.2470581474791893	-1.6134263236318733	-0.4166280914755047	0.304447322315222	-4.53143976974818	-3.6767828371678215	-2.223731035340209	-0.5253059254735042	0.2721162431522364	-4.234899033344773	-4.639569747655109	-3.321068993766596	-1.9954861352130415	0.031853787520571025	-4.239205349709633	-4.862930285573844	-3.715016832508912	-1.6018131930917356	0.11292881490090587	-4.532958972930379	-2.9007103369909855	-0.9855517124088768	-3.8419692419326505	-2.437425845667991	-0.5518882260693847
176	-2.6098864012628433	-1.050950405328478	-0.817042408310854	-2.0248334356684268	-2.5067717965732315	-1.3869283164293729	-0.7909053544103215	-0.7124614697588249	-2.9924991055275516	-1.9489231060413563	-1.2338025538765252	-0.17134219364775533	-0.28031495142735885	-4.032703866313763	-3.1660325447256525	-1.785506124756862	-0.4587297129970159	-0.6780393702554308	-4.135231484463109	-4.132279862461283	-2.8919901774823624	-1.7730637744007025	0.03479467696107347	-4.093226899303047	-4.36751507610077	-3.2687673486197144	-1.3548766340380667	0.1538064922979476	-4.213245858045438	-2.6892421177678116	-0.9118741727694554	-3.706500997722063	-2.532729380888798	-0.8843233563030648
180	-2.0126440474240552	-0.7124057990207452	-0.4751968669814719	-1.6815745788080212	-1.8142437889070235	-0.8564675428701285	-0.6909034234723114	-0.7440264802267689	-2.6374070577790536	-1.256438252137857	-0.55563992121601	0.2722076468747687	-0.5446993694858198	-3.268058530185835	-2.4153783260398174	-1.0591690513572274	-0.1860438282560993	-1.1453119487456334	-3.7159879113791408	-3.35648345099835	-2.2331707421187437	-1.3146637644954293	0.2823323600316556	-3.616699686455869	-3.565191736756813	-2.567387335970973	-0.9189180708572925	0.37265595699637477	-3.599295845481133	-2.227082485298178	-0.65686940981007	-3.3537828837596853	-2.4572284159610116	-1.0101847623115892
184	-1.3193438019820876	-0.21066933817126657	0.006103192906318815	-1.042744991530835	-0.8337903597761378	-0.07135358434781888	-0.3028652660352655	-0.18807123553953192	-2.01974319901746	-0.2632462971716707	0.40837827221761647	1.0018786166645304	-0.21484984403248458	-2.406343215588996	-1.5136731824805276	-0.059928145108314734	0.4870219218355734	-0.7070214134485546	-2.987701885309561	-2.3505594671031274	-1.3144104447557734	-0.4926402556379168	0.8287805893954147	-2.8311068940209654	-2.4753961500612607	-1.5695668419310844	-0.17603258744141706	0.8073849061608593	-2.6174073153216133	-1.4001432621891603	-0.09251452214009959	-2.6666660241511044	-2.0646774716701253	-0.7727981786290113
188	-0.7306753378540136	0.32567402638226567	0.5045200573581062	-0.2621565156516713	0.20741306192960232	0.8518121221017004	0.4279850710553669	0.8245779255075574	-1.2810380426488686	0.8076551536195887	1.532947774831461	1.9849891612481498	0.6709993464694942	-1.6203523833372873	-0.600613473329483	1.107880231921194	1.5838186700887666	0.607527731315261	-2.125154728292337	-1.2315454451938692	-0.1912308926522592	0.6835345012573345	1.5816746910216088	-1.8900345516169765	-1.2146685092776173	-0.3378744116835702	0.8791173078275918	1.3965772355105415	-1.339060780005427	-0.2378014022068449	0.7840924243204057	-1.6700644450937954	-1.3500227894076822	-0.18047556235524084
192	-0.40894973174795773	0.7359958868518109	0.872701344670878	0.39187213679557586	1.0489512655477586	1.7241175131183353	1.4028328621732145	1.9282751034689758	-0.6192830189328291	1.7012709336243206	2.6258251600726994	3.0714073103606765	1.7905441477391373	-1.0478991243608398	0.17751295819764348	2.283797258333087	2.9289269373378364	2.3269896448512344	-1.398587461755161	-0.1647279407395356	1.0044567559631359	2.0537881799343123	2.3577187001783138	-1.0109407876240115	0.03679943447954863	0.9751026605782636	2.121828073866532	2.02081584420213	0.037783615195724166	1.0915741892911592	1.840995187879705	-0.5266573415810847	-0.44895297175544924	0.6020879730282138
196	-0.4065781225429774	0.9087939835491742	1.0156137917626038	0.6774633509697757	1.518665429095731	2.372683995932156	2.409288400289202	2.716902249152444	-0.199730187150225	2.2468056622045585	3.5101301581452193	4.057128896006734	2.724931233201997	-0.7635893206391083	0.7206003647730662	3.311288110002228	4.221639145682938	3.793734540897815	-1.035994765527065	0.696117458970164	2.1133294052173346	3.366298667038022	2.9870123787805403	-0.3662887504389641	1.1020771237205134	2.187396997651182	3.342449656630706	2.5732843810915824	1.277613755815168	2.358767265086555	2.872041933437878	0.5458496199177911	0.44004416354658804	1.3438885178014657
200	-0.6409187896759335	0.8402984121087971	0.9416944360799391	0.5176435099883944	1.611473794683251	2.723810665883049	3.2169580378374345	2.9549252912303268	-0.07972679267066125	2.431962483941672	4.09994648851948	4.775380122525844	3.189970008425592	-0.764556465602792	1.0121992800906217	4.095679272801494	5.1738090384510595	4.515554893537064	-1.0931414338169265	1.2691686121368437	3.0131308956365945	4.383092869182778	3.39861868953943	-0.002269426122165963	1.874423499143268	3.164319268820554	4.333341587570106	3.0136167926995765	2.2185876313462365	3.3823697481589456	3.6955242063679403	1.389780160256096	1.1654626101632637	1.86913167958418
204	-0.9336485243113126	0.6359641535914884	0.7573874573658872	0.05227882774386123	1.4835970364306692	2.831681721213728	3.6748559382163877	2.682706110856823	-0.19122400831580502	2.3949935375781006	4.425190914425611	5.161681162199941	3.1760122695844895	-0.9766479705948088	1.1204438181245204	4.626739013434574	5.631052956669189	4.4049692042715884	-1.4129478895753498	1.5720382889158115	3.6601321604825654	4.969639288752916	3.6347067264342097	0.1717026974396079	2.3487639367884467	3.8660209081316914	4.964951025825299	3.368467560846633	2.8410925793442647	4.103227604996792	4.230078209687511	1.9836484143719573	1.6956336455449863	2.1380939429660897
208	-1.0953627797128074	0.4540018725853686	0.6081420167827652	-0.42836746465295794	1.3665353025266977	2.838538639531377	3.765093078644078	2.1663274710320137	-0.3848481466590434	2.342336887167833	4.595328796228721	5.262245164936765	2.9147581980547614	-1.2761204210487356	1.1629501551830348	4.958214270471214	5.61881540787196	3.773319473276629	-1.6988985495589601	1.7034206347373622	4.087994565179295	5.131437765517266	3.7928323649967726	0.31699904719426797	2.605394356825332	4.34342192506907	5.220194803409631	3.685942640535198	3.256067267780197	4.58649061952374	4.510633457239675	2.433881276661437	2.1135725921674045	2.2452046814499336
212	-1.0157195304021684	0.42078202856638114	0.5987462982319632	-0.6373597963453805	1.445852395221949	2.8892972396382093	3.589670172211368	1.7304794744670189	-0.5135714994815549	2.4369122920499025	4.725461947908222	5.188459383262704	2.6988770893621377	-1.5280590018793265	1.2502946822070788	5.160819517457244	5.301407323803954	3.0986487787214636	-1.6741925435712268	1.7872452690777274	4.370225895338311	4.990443217075635	3.937407960487467	0.5572567568061052	2.7555794646309653	4.690943706113049	5.182882772711598	3.9794242281578756	3.6224501041507016	4.958160387872473	4.646718967149998	2.891319506021043	2.543586247697935	2.344543451111847
216	-0.7120040637159734	0.5672219977362981	0.7404028754614425	-0.4426391411573002	1.7707183316347126	3.051729909821368	3.3060133373715024	1.5806729753640427	-0.5059841858486724	2.71708726196936	4.870017039401167	5.050022589331218	2.684164994138662	-1.6314843851860126	1.434169408038311	5.277888761546438	4.884435641354509	2.7264523437328245	-1.2362117736122638	1.9084474992252123	4.56986759939359	4.7152480960053	4.045957078255399	0.9006515122562554	2.8804356979125356	4.984050738148904	4.987914072794911	4.202129353404315	4.043900956434419	5.316657052921946	4.749941813874249	3.4442169579332162	3.0575914305737806	2.549962990998486
220	-0.31042396943872796	0.821240184617852	0.9537126397849476	0.06983307731401817	2.2416891995099566	3.2896175301466624	3.0528898162057683	1.7161387161795565	-0.38600590727623746	3.0898570936392904	5.004503237486914	4.9088311071437465	2.8007795739986574	-1.5477297266984371	1.6894221263193359	5.311697469651997	4.521865833309949	2.692423813697889	-0.5119270669409984	2.0761716313395913	4.708028304611174	4.449360836239588	4.029053201039777	1.242688533506495	2.9975550099032144	5.238720403796208	4.766014563925222	4.275142658884037	4.505935180731761	5.672631249410893	4.8758983488955945	4.05319355895002	3.6186520961952024	2.8685707973535024
224	0.02422370755517021	1.056564805224276	1.122383353260615	0.6549094898855139	2.6776027611840387	3.5011088759719513	2.9048857615562493	1.9715586850933988	-0.23569473564722232	3.396044722565948	5.062698828312885	4.7775640367049	2.825793497580523	-1.3033761945242328	1.9354510258446571	5.244963632692798	4.275009621317234	2.769874565760645	0.2151726478866119	2.2304673138571367	4.766794192676915	4.2691745650270345	3.8103437327504124	1.4422148429697805	3.06801890552304	5.412694917364532	4.605540740783016	4.151023854265766	4.8879532690616925	5.948881611109668	5.009454237688037	4.567659843356683	4.095103730352996	3.2037098326859463
228	0.1720298971362763	1.1673408717246836	1.1641826600245886	1.053841826639232	2.920762293117117	3.594404926761792	2.8685822414452704	2.146788830105392	-0.1308414783750632	3.506951800075241	5.001072870979462	4.652239787753735	2.5634119445930703	-0.9683914160120779	2.083882565005426	5.0787711015267005	4.1302366152435415	2.6877620152324857	0.6642498357214595	2.2861561717487624	4.719682204728235	4.180161465581361	3.4085798177491435	1.424195762853226	3.0351855678221225	5.442150102226688	4.536905277241704	3.865845432057916	5.04016541162173	6.033948883081173	5.090337740444031	4.812059390316538	4.333402622726203	3.417836419059391
232	0.10959348054872725	1.1234698267228376	1.0755712958836867	1.1356326312957061	2.9178581164124133	3.549141398052219	2.907850019742735	2.1336126273646108	-0.09577310806174305	3.3935177240524306	4.8432049629002565	4.5446572189030405	2.0107748457686183	-0.6255717857779134	2.0833897538036674	4.855254637857628	4.045510758676448	2.363825553648003	0.7021259051715774	2.183369154186009	4.5632119063561944	4.138533581775328	2.959462635197753	1.2366750209102886	2.865540020383615	5.285762296682809	4.534378040309608	3.538611879951362	4.874789702505572	5.8511748166175845	5.054882513635354	4.688270557010911	4.243429173246332	3.4121842298189007
236	-0.0946612430209101	0.9765581463953591	0.9249224639428715	0.9524111723695629	2.7332625320090878	3.426858893325552	2.9778530522503206	1.9613094280315682	-0.10507751229697972	3.1309518735037978	4.6748137356032355	4.490072715867026	1.3873611653586388	-0.35000538737620907	1.9378043364237374	4.647665488906642	3.990546216426304	1.979781026610115	0.39239343901746526	1.9171869706386941	4.329187859095486	4.083981026828831	2.6507182054352656	1.0222341988503811	2.5681300098429993	4.951601969615106	4.5322017555250635	3.3103594696389718	4.419104564953673	5.404072747891672	4.868356692420495	4.235368241107261	3.8485360048402653	3.17793654593156
240	-0.3301210693130851	0.8181773403491568	0.8032771328672449	0.6805132610305874	2.491352551845926	3.3213980114049257	3.039670698120857	1.741640921010189	-0.12771853772342487	2.8385546135761364	4.585909831866515	4.5149550323935586	1.0034393046793888	-0.20928578025907216	1.6868809419003978	4.516342628520427	3.9453740020322963	1.842210168955739	-0.0798923520216875	1.528846975281268	4.064254750480931	3.9553725619588347	2.6048200064697262	0.9169144011235818	2.180500263430923	4.488324630849466	4.439993847127496	3.2544779695359187	3.796419134091721	4.769648539898713	4.526631343856999	3.6067657379641043	3.267506829595187	2.786525719283058
244	-0.5078269826465406	0.7191832643471091	0.7648164610626459	0.49423703426509563	2.28942202943705	3.2857568181050185	3.0568063181947815	1.568901892515649	-0.17301534072585983	2.598609917755547	4.601082790202231	4.594377506100507	1.0563967201264337	-0.2675700478950835	1.3702429498409452	4.462684620080461	3.874760141126595	2.1343784278387514	-0.5451187477654006	1.0739033195085035	3.7960748576643675	3.697475185595803	2.788824312798373	0.946289179320139	1.740335698502193	3.955877294089518	4.166447152108906	3.320887557228358	3.156856767313516	4.056124200116937	4.042839516922938	2.988050691689906	2.651020043355646	2.339789623075143
248	-0.5997422322390008	0.6874043328096064	0.792705653096572	0.45123845224894654	2.135119432780728	3.285504571248966	2.987914793100161	1.4459551536292825	-0.302200793456987	2.404512160906119	4.646665084551257	4.637076842998317	1.478780027470663	-0.5794860706003844	1.001177427625163	4.4152159579383445	3.713057031793645	2.725086205278022	-0.954672214958764	0.5919629320457815	3.513340225886138	3.2738675988509782	3.011584035899289	0.9927660797803413	1.266373750350382	3.3996295843122684	3.656964292830041	3.3548917685682866	2.6036250525542863	3.3565537844790074	3.440172902004706	2.5075142320266792	2.1140670722992123	1.9167996596579215
252	-0.6362478120952584	0.6696926338453825	0.8123139122481158	0.46344199659641616	1.949808235014036	3.2133915343216586	2.79289435635194	1.2885333267104502	-0.5851061925420665	2.1722886507502395	4.583083141199824	4.519437778506509	1.9497642467863028	-1.1598917216580418	0.5697008356969586	4.263844956123254	3.382401457829886	3.186322681011705	-1.379035350178854	0.10036173437528835	3.1768650928397824	2.685854666604489	3.0239105148262975	0.8670038559004727	0.7658633570408376	2.8453814911528945	2.9314467832939988	3.1882743754953027	2.161161417273084	2.7269122531707506	2.7601344515732005	2.1926853601408816	1.702949996463404	1.552076574221642
256	-0.6682300550755766	0.5949980601547262	0.74187552741619	0.37263414169644204	1.6359589058580042	2.9616780206291713	2.4586188731108214	1.0038814519332164	-1.0291454766039279	1.810699339109759	4.29081343521166	4.159537781703987	2.077844614504923	-1.9404207419041923	0.0758393330447416	3.9288771053301725	2.8459858822493906	3.0336322707831975	-1.9024442386278813	-0.3839723756155697	2.7589375903091327	1.9928148934595318	2.672365420270138	0.44476687795879766	0.26450037889457867	2.3173830450677495	2.1031935161895805	2.7546236445497603	1.801224465590895	2.197558397466835	2.079891199582764	1.9940175959787731	1.4110890591280774	1.2543224064629621
260	-0.7243302446197588	0.4277491260696192	0.5475472794059977	0.07356932740710503	1.1610122889769898	2.505208247535431	2.0249040075676628	0.582995055634097	-1.5350332221375973	1.301308509402195	3.757243862202714	3.5859594254556	1.6410422283701944	-2.750315182417694	-0.43407869229394924	3.4232613953945714	2.162664646410524	2.0471928067972773	-2.4961426195065615	-0.8167244771364247	2.284676546050594	1.3181965317823474	2.0113112875702424	-0.2229437971446787	-0.16988503890061032	1.8608587933288216	1.3625714744498523	2.155628675740422	1.499679204015493	1.7992314054839276	1.5179575643361658	1.8498727036501381	1.2210144965815415	1.041282770388897
264	-0.7938280681595036	0.1960587645587483	0.2678998105914708	-0.39901897210468024	0.603088258174309	1.9408426235788474	1.589407439987376	0.13470163907374466	-1.918470616265336	0.7371943574412839	3.1086664121342817	2.9539465829655858	0.7406429629699915	-3.3484666262963008	-0.8567807056729878	2.8671851085752627	1.4992616138752508	0.47299364089755697	-2.9691812917131326	-1.118101474800051	1.8443430615589966	0.8246411660355044	1.302234288742509	-0.8987293816763915	-0.43328028807919866	1.5465358456666003	0.9186955071142632	1.6323990780624265	1.2799375024905144	1.5765258034003313	1.2085615365986389	1.7436851219022447	1.1368281812575924	0.9579915380132802
268	-0.841201958916666	-0.021968953255977055	-0.006112555492137786	-0.8754107930015922	0.12609128622168153	1.453545447494396	1.2784960237649057	-0.16815426903231467	-2.0003845641176055	0.29114073441432387	2.5608847076609744	2.4878144201409915	-0.23342589975073652	-3.5127303511623365	-1.064324137861546	2.438990825217262	1.077534672877631	-1.0393936607821554	-3.048051826410854	-1.1998145549999342	1.5612120588940117	0.658413646943012	0.8879545904629031	-1.2715054718340077	-0.43073955069509523	1.445190426038745	0.9166403985722411	1.4468123876282777	1.2061909406726172	1.570445056764988	1.244461294846929	1.7105202631679237	1.1789914339816459	1.054486987312652
272	-0.8370308854904599	-0.14109599554678198	-0.17842279329552033	-1.1435306043363735	-0.10234277669578337	1.2251075475279334	1.1929388016145839	-0.18950189602214118	-1.7107963518818263	0.13016778197802908	2.3116612376023373	2.3722855984874833	-0.8045529106807964	-3.1482236305860454	-0.9650114154293336	2.285802835415426	1.0712931129110896	-1.7481021836968178	-2.545979493388914	-1.0136834357417819	1.5295942983155748	0.8821421839376611	1.0101815436607795	-1.1320090265303797	-0.1358145322946974	1.5858056505219824	1.3661786283332622	1.7372951463705872	1.3321821655971346	1.781897540361981	1.6179007250945756	1.793411488773463	1.349156018665547	1.3368912901503698
276	-0.7822313288966378	-0.11647665471233341	-0.1969342971836435	-1.0717972489953271	-0.0034157787363417796	1.3358092274318492	1.3572683300082855	0.08789891727428094	-1.1441400022230186	0.32372715987488243	2.4339506564677804	2.652813904740277	-0.6687577349944409	-2.3563613832109156	-0.559856949823222	2.4429778991055113	1.5110927782054264	-1.214887973579126	-1.5183958968927371	-0.59227621405793	1.7587102607192904	1.4360296689970542	1.6697310167117636	-0.5025607930846411	0.3735533645258473	1.925065989402371	2.1246564334632727	2.429590219085601	1.6424916941181829	2.1443519538145472	2.1994244996807515	1.9845296094380918	1.5956534106976197	1.7288904146413189
280	-0.7064396721170155	0.03401486567015557	-0.07421079259255825	-0.6846989375947267	0.3660595109757367	1.7171920494593678	1.7013378100355896	0.5505269155907966	-0.5231803642415355	0.8004376868066038	2.8323738503471123	3.20196127083123	0.14080537820075212	-1.412279483090526	0.0424310824693851	2.8100411820990536	2.2517642918001934	0.4433407474291799	-0.289049684271593	-0.050741996488013884	2.1580738966815143	2.150500292116895	2.613070242960127	0.3609741023009846	0.9332643723767051	2.3518721997963463	2.9478745386083576	3.25806426179371	2.0323953577226987	2.532345765395992	2.777312510154098	2.2001349870446805	1.8128627492910645	2.0792555756524838
284	-0.6406831129110866	0.24722193119097202	0.13184200193973683	-0.14249144458557908	0.8458957650762325	2.1878683511808754	2.0899476952238776	1.0264713738274762	-0.08036246130442469	1.3839857543335305	3.292421332629818	3.776463499071303	1.2828664747273821	-0.644978879253848	0.6694489104535113	3.2006611743226716	3.0277373714297946	2.593871348507867	0.6901675445297722	0.46088266256318977	2.577815287757389	2.8094389367697636	3.4595467956935844	1.1062657805168838	1.3671457732969459	2.731872074859278	3.588474264621614	3.8931317231114613	2.3503527581955685	2.811677210384718	3.14684676329521	2.3165986479444856	1.8868123245285542	2.2248988095376996
288	-0.587455211586734	0.45599254850655113	0.3587169936183287	0.3564627459586149	1.2619962660398398	2.551496022458238	2.3888294636495715	1.3902033532329328	0.07301558535737852	1.8854777765354025	3.5955943970499264	4.139826287307953	2.304028743648829	-0.2789453857054901	1.1643116444755568	3.4406068238175753	3.576162806065051	4.403419006674183	1.0761611434468947	0.8291490057038412	2.88367985951018	3.2402574934213093	3.8961045643667727	1.4799793921298052	1.5765286644232732	2.9699397012113398	3.898586024931797	4.104050625929772	2.4800779756872577	2.9053792880137435	3.205926648628836	2.24726461796817	1.7624707177486756	2.0782279915791504
292	-0.5127289878297818	0.626667021122896	0.5744555578033318	0.6831399185099177	1.5179647168935206	2.6995150974782027	2.529930585195791	1.6253035027476994	0.009150262898946375	2.1980371419724625	3.6341757682598907	4.18264531033217	2.8843059466973195	-0.32183730521008297	1.4563673697895176	3.4573535831899664	3.762425890006403	5.256209837040625	0.826597509681383	1.0298917267546317	3.0226325912455394	3.3838412676254452	3.832095613341246	1.4606695138292538	1.5907992084393676	3.0532212180298828	3.8833110234444836	3.869186868435588	2.4088139473179875	2.834466211792025	3.0029635353564785	2.00734543293548	1.4877053461660852	1.6863585667949053
296	-0.3647124162048916	0.7711551765999258	0.7864075283222817	0.829910514643569	1.6336125094177	2.6573440961503483	2.5359299118865772	1.8067792608420685	-0.06603144837635837	2.3378300607784546	3.4562058361530696	3.9672658343287095	2.9856991692501644	-0.5684066400482181	1.5793482025326098	3.3052809154983516	3.63072608984758	5.035226332349532	0.22204060796467753	1.125280615826542	3.0352988166469097	3.298990002886061	3.4260907086656265	1.2430140940754362	1.5404359063356878	3.0427746695943436	3.670459261210276	3.3697509680546966	2.2312276307039722	2.7005422047143792	2.700470679140829	1.7154746012291457	1.1959873407685693	1.2153743474792653
300	-0.10728832307192317	0.9289516783148702	1.0214942667920075	0.8836545325857287	1.7128267244963291	2.553156131020331	2.49732350672587	2.0203409143937585	0.05441054688067772	2.4135997234442104	3.2219579138471497	3.679353466281204	2.8268411088144503	-0.7250888925365445	1.6306970078305176	3.1195080201543948	3.36006831274467	4.1258177653096295	-0.29498627707391106	1.210631248278594	3.0146193428221673	3.108204833766307	2.975552789804956	1.0923463078576303	1.5693535765126165	3.023978702539748	3.4220731171993295	2.8755199836610306	2.085764641264102	2.6210045748340156	2.4772372183244347	1.5256390533075554	1.0338293287878422	0.86445784350532
304	0.25166553195356434	1.1310009927804834	1.291486736851614	0.9438299512875602	1.8616810990060668	2.529520028403615	2.516699784600534	2.2753474654924823	0.4410712409804421	2.5432553227109778	3.099468700212924	3.5157601744579092	2.7056581905718238	-0.5851726517208232	1.6972401099269168	3.027344696031006	3.1517527023849965	3.146930686634842	-0.3773990859993684	1.3422316278901827	3.037080757102616	2.9182116911643283	2.7339706351872315	1.1604475945738135	1.7358262495084513	3.045573703705929	3.237810365131589	2.5887803966011647	2.0598554559199704	2.653863661741411	2.4234180389254028	1.5276219806249367	1.0733156177125018	0.7565346937152387
308	0.6603763086812209	1.3723919356982515	1.5707478483596824	1.0494451496331205	2.1137649959602536	2.6539041928997555	2.6518335275454867	2.480806821281731	0.9754955147909863	2.7739770342408883	3.1633737007382248	3.5735211282152752	2.7929017473278734	-0.14998152814191715	1.798323865164869	3.0721280497234806	3.1145229260965466	2.582816832697154	0.029810033663350027	1.4964822492963916	3.111980668794005	2.76245617169063	2.76774286525028	1.385165091832079	1.9682298849003872	3.0879397314309966	3.1074933927280637	2.5395755703704146	2.1286792701382966	2.761038534822871	2.491144650845474	1.6823859172306554	1.2650516001233125	0.8696760513282964
312	1.05005383226403	1.6114547211969708	1.8019680931372355	1.1670826644041685	2.413070911037098	2.8846445010787893	2.892909281102478	2.5077741082772436	1.4178988897764726	3.057368270784305	3.360346785644358	3.806951990052677	3.0269479675163824	0.3774618794924807	1.8845714283092363	3.197639218840189	3.21621345661678	2.52658104258645	0.6717294437615047	1.590536948003018	3.1838257232390785	2.6004824572710827	2.9315850660695286	1.5433766802921913	2.1093628353268365	3.0839788835863824	2.9400267526784645	2.589034312387267	2.1719779913424544	2.836489193430594	2.533531897824028	1.8402142478258294	1.4659807645024898	1.0551371547762203
316	1.3675618137164278	1.7929280951055548	1.9257190178888814	1.241014596666849	2.660514586407236	3.1084208409984275	3.1815879264612814	2.2960529269422816	1.5550794562178447	3.2898306763558414	3.557339420873928	4.072849740235842	3.169296495065312	0.7221338730699757	1.889299507139462	3.299617520584672	3.3284137164958554	2.6803786686935096	1.1555751532943062	1.5512961110049237	3.185823432508327	2.3756987988572837	2.975995056268073	1.419334408037619	2.0253179022199377	2.980256549940175	2.6522929601462555	2.5369203026616645	2.0622401185421233	2.784229748372107	2.4107117592028446	1.8369271708840553	1.5298566779612137	1.135348197931556
320	1.5947399099140984	1.8804178190439054	1.9165819834957514	1.2604594198828314	2.789198868385196	3.220912448380429	3.453461161477382	1.9291710804869773	1.3361380066516002	3.387611142188681	3.6368846801488037	4.231011856840915	2.9850809498761146	0.7104098778908358	1.7940401985649663	3.3064980423415924	3.3316860114857625	2.599701874845075	1.2001399963595862	1.3846485579817596	3.1048085611155796	2.090207094637285	2.7205870082831556	0.9758313273588031	1.7099007324916926	2.7948169637689606	2.258412117024498	2.2655777874013037	1.76609301121182	2.594537013179038	2.0952393955736763	1.607250567192998	1.4036300146904277	1.020596859262535
324	1.7402864650657328	1.8757117939321906	1.8011821462932116	1.2896282640322096	2.814508431004401	3.1966583648082416	3.6708946135346165	1.6189813573016252	0.9106667614832886	3.3456091796329828	3.576815596132983	4.2326402557320675	2.4244427619757944	0.3809615662016319	1.6599223571830002	3.2348289408074513	3.2088456072854066	2.013984675090959	0.8089712837775511	1.1951391666755569	3.010518543271974	1.8403973532941171	2.1819219534145167	0.4114709188086242	1.3146653142161895	2.629421227492209	1.8969384383945898	1.8284701062768063	1.3917052710681912	2.367761605960453	1.7102912621232749	1.2442538706836341	1.1704034775748005	0.7738205770982622
328	1.8166887714295372	1.816972131910084	1.6498538214036724	1.4330996238765832	2.8242709565382245	3.1043345849815225	3.8279702566774674	1.6002405841479523	0.5440418706509624	3.241418115061445	3.463355055647959	4.142488945992636	1.693979020610199	-0.03597361585356088	1.597945566911315	3.180839053706214	3.06542872608622	1.0375838253527647	0.25979816848012005	1.1346785993538397	3.022080652236313	1.7802475645894744	1.5824497898203111	0.05309606702631328	1.0758590671079358	2.6190555029547813	1.7685806706598852	1.4291025364080372	1.141636368730194	2.262900346764753	1.4700860940056746	0.9574326252606324	1.00553667291445	0.5774299487794037
332	1.8196353866412138	1.754121775966776	1.5419270953349136	1.7485846236904117	2.9086987898821937	3.055612556372234	3.926158179860963	1.9872441241635992	0.4580271530508222	3.177697173678746	3.4279045972108513	4.082491864387523	1.1555196017655158	-0.2632556551008768	1.6901721911672958	3.2510545171672427	3.0617768687193414	0.12739138273023992	-0.08428727069078244	1.3038140502436475	3.2265961088732813	2.029418463351553	1.2267060248874841	0.14732547067162569	1.173257944005887	2.843451969597097	2.016549343739879	1.2986106839771825	1.1914491623361183	2.3968379437013736	1.552478786363571	0.9472433304712945	1.0677611800891964	0.6178936346666226
336	1.7307623581104086	1.7210549072682184	1.5280450543924844	2.177800411447994	3.0836214941372115	3.125782243466191	3.9471769233229104	2.688735239869921	0.7010258418503802	3.2077779688908854	3.5530767351089336	4.139273156205834	1.1215625973041299	-0.14783374927866455	1.9193974684892534	3.4805023582322296	3.300426951658678	-0.17503897801551993	-0.010401577662492147	1.6731548267083074	3.604336014230615	2.5802264148417557	1.3256747689155661	0.6908581239423964	1.6114917952859276	3.2593433774673604	2.6198825770035965	1.550860639471294	1.5736050566044217	2.760478728000554	1.981563920740135	1.2773622242148508	1.3963634932549165	0.9616042351286402
340	1.5433897933140086	1.723592515408479	1.61147713254335	2.5516259605835208	3.2662997163322434	3.302237979180961	3.852339734841648	3.4376096638672564	1.1312950820970626	3.299825183166545	3.8132805728003705	4.3006257902283895	1.6725442367287697	0.25536405975718424	2.1630976145490797	3.7966828250395417	3.744127025687979	0.43834906705810045	0.41982442034583745	2.0842549748250425	4.016313542716229	3.266938439704044	1.87257194046264	1.4155448639416568	2.2047579232817878	3.7040576841295985	3.3720700655677622	2.1044008678711026	2.144858116456702	3.209932796003365	2.596401446462905	1.8272000505091388	1.8809285116390515	1.5012587270980529
344	1.2906120982963882	1.744962807064424	1.7524268582922222	2.6756999425090333	3.322730771258738	3.4923725039999898	3.6138861088109953	3.9231037994518045	1.5183140001110227	3.3619758997912457	4.0876932040960705	4.463965881521317	2.5980307990283715	0.7336093168810298	2.261955493938159	4.0558791058182395	4.2215762031782145	1.8452001763487027	0.9300584173562655	2.3362030923987733	4.270339001364427	3.8301217459298478	2.641092770584079	1.9453446815966555	2.6799285344173027	3.976432790253441	3.969799985399582	2.719278328705771	2.662596219016116	3.543459883326573	3.129621974672927	2.357472652205302	2.3242654741732975	2.009057516747686
348	1.0515869829330717	1.7634400084795656	1.892565007199882	2.4517877039996505	3.1610889355004628	3.5855138211323845	3.2590737260550773	3.9520320792554764	1.6951497750399214	3.3139510071054903	4.236799229415415	4.509885299740343	3.5017681033415027	1.0656741830623	2.1264657920555066	4.13086937815088	4.519597518954104	3.5342304617342744	1.2284514873006798	2.3103487433276966	4.231378067777491	4.044871796886069	3.307743064158517	2.0299012609730145	2.8408265042106593	3.9521179099437367	4.166192997904226	3.128274432867247	2.9280512258990075	3.6214585212827215	3.352709761737858	2.65238594339187	2.5619273121047534	2.2678332271539103
352	0.921770808753685	1.7681844189824187	1.9831154296397213	1.958265299621285	2.8108940053543465	3.5282213598817704	2.8918735907974757	3.5468437582112182	1.665157194701827	3.1568622509408217	4.193294037722277	4.391396511434762	4.009608258614505	1.174327847376904	1.814283127972476	3.9953236479022793	4.5078453903827	4.859827029356093	1.2161481349757857	2.057899708320538	3.911481609005684	3.8427421949641465	3.623885383993269	1.710628266783984	2.696300261365714	3.665869941992737	3.905122985517099	3.184316627092209	2.9109287188469004	3.4583737762873663	3.205710641396715	2.653353684402	2.566057913977259	2.2028989736252265
356	0.9606044864243467	1.7618142321927768	2.0003497550051446	1.4317185842606244	2.4276449619036224	3.360650292494788	2.664407484956978	2.9264073298002526	1.5903530080697055	2.986247293562135	4.005422582050366	4.176128376907461	3.9588289160913437	1.1741720408358545	1.5167789420933528	3.7468731308751377	4.21882151492223	5.362208829692925	1.058594343373754	1.7851790144671604	3.47799157218205	3.354851714247099	3.5365612417576866	1.3028877940661765	2.463570111730523	3.3041198170210584	3.3558561717183175	2.9346322939213323	2.770759813942614	3.222977391688814	2.830515139109129	2.494784110446271	2.4627237257768493	1.9281628083185023
360	1.1473945350288275	1.7483860210145217	1.9431614826733346	1.148112055740822	2.210139030598524	3.1872644343967784	2.701869242522308	2.3797802865026187	1.665621395674166	2.93396209929717	3.8023149871194377	4.007857789411161	3.4664559276799247	1.2794799772383736	1.453097220566817	3.550049295999145	3.830922117097871	4.977326380560901	1.0685563060484926	1.7369437173858788	3.167791358579244	2.8455777096429995	3.1938497939535164	1.2001532285906928	2.437841170831737	3.105389825609962	2.8230678963911155	2.5806167060547596	2.757899277399767	3.142210714036285	2.486540549676068	2.4190423427541994	2.4513518748381533	1.6780749517035145
364	1.378561970091243	1.718780394029332	1.8198184921095015	1.2691667047882158	2.2768793048593423	3.1016583364378643	3.019789211278353	2.1114163345434536	1.9685654590496253	3.073749772894435	3.7047672178192137	4.009659757027461	2.844267599554144	1.638608332311581	1.7323025421275162	3.533720961232021	3.5630624204322325	4.028176297508055	1.4794443808396522	2.0455703683705875	3.1552333752125126	2.570833199686028	2.8356370854310367	1.6211427409250134	2.8056042123531757	3.224526874030483	2.5813078815138297	2.347858184608727	3.0541264933724457	3.365161887255736	2.399270051620648	2.623305314116537	2.677573674117462	1.6665216642265803
368	1.513020511621885	1.6473929840456887	1.6375693041464798	1.7444953874412756	2.5781133109805134	3.115009299996686	3.4857144267768096	2.1471831744342302	2.386710876161024	3.3528566275822143	3.7390339280140705	4.190345753580551	2.418553823086854	2.2052514497392823	2.2683665695140136	3.70563696879358	3.541952839491877	3.0206119937927554	2.2569999637840445	2.636131279965502	3.449096670979368	2.6369402342023514	2.6424181394619586	2.4571247038793644	3.5128760249138	3.6380898860631192	2.7233676841641965	2.34570931796071	3.6477847007206488	3.865825404897322	2.6275184088172034	3.1295478264950134	3.1349358479505263	1.9538850734970903
372	1.4417908155279189	1.5032618007853173	1.4015835488218764	2.326943153228427	2.9033639357696863	3.137764445965846	3.8600423238572352	2.348717206747061	2.6716027192375176	3.5992455391610694	3.8127097987234424	4.420660961434119	2.3628845155186653	2.736685745959185	2.806838982171225	3.941536178174188	3.7285959626473573	2.3702771603822024	3.0766868513629717	3.250432244677359	3.883878698079891	2.94843506068641	2.641026013382099	3.3199248230083764	4.273533810316321	4.151625622757899	3.1155729215162586	2.509458297115765	4.325442303227257	4.448428619597655	3.031488887762486	3.7633113766069504	3.661376467043755	2.408602708457437
376	1.1431369752632707	1.2701001135230419	1.122601506259942	2.6968960693933846	2.9900405331460638	3.0308654231797094	3.9045143028861897	2.5145180161886835	2.593749755032832	3.6104733852783517	3.7721860313544417	4.500688541493299	2.6314058237396396	2.9340383932422895	3.0575652045301456	4.060256470919492	3.9489765067534255	2.2134137097742164	3.499301663146924	3.5843675046069583	4.214825619546577	3.274548522311173	2.7162437370386283	3.7676520252471146	4.721775519847462	4.508527267517209	3.4865682037064167	2.6554913453768276	4.78944061977428	4.855667101998431	3.360569230178098	4.255530346616658	4.034469117468974	2.7871053148473908
380	0.6908894163808245	0.9611594652704492	0.8241136053259294	2.6280889444755533	2.6733353070474744	2.696797125683307	3.505824080198938	2.5027842458478253	2.0993466324254895	3.2748227036764477	3.5075023085729966	4.283622254046954	3.015075199144259	2.6348707609409745	2.8601164745599057	3.9409465690295584	4.0114655393410175	2.3900849758839504	3.2382569231291187	3.461124649846095	4.262524594035523	3.39790200329246	2.712595455950427	3.572318783323902	4.621217239156523	4.538886535629036	3.5983245281923257	2.6133019858184285	4.831321704110679	4.916728007300811	3.4087629232174312	4.403562057821284	4.107078541876717	2.8848588393808603
384	0.21093904918819426	0.6163223966296655	0.5384572730774767	2.0985538906519783	1.985565776580251	2.1510615294506836	2.7441995074606003	2.299484247124048	1.360610481641693	2.645675890918577	3.0348412913947693	3.777774324415894	3.270045033781894	1.9256590556163886	2.2775430621818855	3.606157532170352	3.8357269667103737	2.586718075897143	2.3464114606743913	2.9321582243322415	4.017696847308683	3.254635802634885	2.5552494461395576	2.8578505443898456	4.001423825651771	4.257341374138941	3.3963050756536695	2.349614852695112	4.452285278523465	4.6442017437982	3.142215005570698	4.190024365336733	3.897182693178748	2.6643986634695733
388	-0.18653090251081286	0.2853856377548886	0.29522320553629505	1.2945899930693652	1.1498713464315706	1.5305433234672925	1.8677571964791295	2.00707053631447	0.6908837539395851	1.9263194750788326	2.505403989188379	3.162769786478885	3.2480709470758984	1.1072710724531276	1.5666464527630428	3.220527402376152	3.5121743590372754	2.5524704391885664	1.2118686407010069	2.250315422098651	3.6464197543587384	2.9789502545485758	2.311836475257534	2.0311303087451797	3.1458856980052783	3.85396503429128	3.04737400239218	2.0051042982975837	3.8620118997342208	4.224929322066233	2.7239794662366266	3.790692558254739	3.5793006329766843	2.2843508662723635
392	-0.4601742315595005	0.005109907115015537	0.106717921524024	0.5066206442439771	0.46570524455746837	1.0280947659284803	1.1797834604994215	1.7667707160212054	0.36759292986567926	1.3665525878736389	2.129503006327013	2.7036294868873707	2.9534289762316632	0.5229530917315808	1.0359953615735111	3.001161806158757	3.2538185037477887	2.2500302734787656	0.35555863290662204	1.7268630222590475	3.39060353376743	2.8254256177138983	2.152388805677191	1.5434117278232307	2.4346346793694957	3.5816218762569565	2.842597477411754	1.8173211767090074	3.354827872389249	3.9083733459977843	2.4208135543738734	3.4648733051558445	3.3800799761310354	2.0088889548126865
396	-0.6402192695666157	-0.21296878105276726	-0.036970388050913426	-0.01558277658909193	0.15263377091495264	0.7918198088681567	0.8966634846936924	1.6730960565287072	0.4740279006910883	1.1313370437668786	2.05993341879514	2.6074638300867083	2.514411204665516	0.3596486440161383	0.8763849713133416	3.091588727774933	3.2658736623324645	1.8671640110558225	0.15133319756923724	1.5578201969869871	3.423128834664926	3.011060945538061	2.2355101052109823	1.6308884579490528	2.1365973895488475	3.6062021164445315	3.0199100894976523	1.9752148339946904	3.1401455323093215	3.8603875539589025	2.4480020938102336	3.3976752672243067	3.443166962513504	2.0533902593267963
400	-0.7863650302106641	-0.37669613862298457	-0.15812501271379456	-0.16965736405930434	0.2423011058411904	0.8477207996900025	1.0506976816352682	1.7337957576846592	0.8566879012413068	1.217202898767068	2.3033294619580897	2.9051966593826126	2.101750130115344	0.5464646206410309	1.0616027089972622	3.4728183658657654	3.6102280525610757	1.6913084941124248	0.6278725846650793	1.7204251245931117	3.742182245343158	3.5681636243378105	2.595437996987188	2.1869502012350734	2.2711992206451677	3.9065170189455865	3.608750334211535	2.4945123132667812	3.2285580553557547	4.06864212916248	2.842010014034331	3.5918400196942932	3.7451279068805206	2.4566593108141332
404	-0.9311600900028676	-0.49505936974466314	-0.2725659601959313	-0.02036283160075325	0.575691162086406	1.0913556786639644	1.4888011179528695	1.8872351598775232	1.2226132123596705	1.4636847935915385	2.7139513424063546	3.430436602514517	1.8497365666418148	0.8157619217303772	1.37548923145154	3.9663956065171857	4.152853001600015	1.9330613564323555	1.4663200341396947	1.9976067492595062	4.167982090917286	4.3021945844749165	3.107100717329275	2.8348956036519026	2.6155266695744084	4.283343781147266	4.394406784406899	3.1944525161199633	3.4382409962631235	4.354030598137989	3.4357650193254052	3.8719215295309786	4.1104760066203365	3.053493253627951
408	-1.04688524935577	-0.5603919611133751	-0.3725050380361845	0.2679916613488378	0.9043187476214473	1.3524800504869885	1.964175934600869	2.0567016549635775	1.3198366131838462	1.6533164936285114	3.0743656080826995	3.908735742237104	1.8255363656683685	0.8901713468011478	1.5476421078708387	4.329089153803987	4.62801407599239	2.6065914565079784	2.1887102071815576	2.1136517471354663	4.443323124157664	4.8811764593864195	3.5562276750423845	3.1538505474572145	2.8481078075980375	4.471447456514635	5.023493277264408	3.793896188694038	3.5133852869974747	4.478387821334759	3.9489388366180225	3.993658055712881	4.314674366547901	3.563641777577987
412	-1.0616269084829797	-0.5461239800969996	-0.42473381650501224	0.531850932685831	1.0321592066454524	1.4924228153695678	2.2674071731541314	2.194183582488173	1.0874917479715103	1.6370376307164256	3.2143127837089813	4.105100144512328	2.0306329675904298	0.6694805009151624	1.4106395208983165	4.382440079114846	4.780601489394985	3.513109675120729	2.418780559155007	1.89431964872835	4.375532616058555	5.006767737145504	3.7636368179666024	2.914466373714678	2.7347178390122493	4.285458553938558	5.188928591025191	4.064684380759387	3.275732032134845	4.279235352202561	4.1357121363173635	3.7864730262524526	4.208455551966224	3.7403252030352245
416	-0.9097586251177836	-0.4230224777508643	-0.38798081776891674	0.6833403093251466	0.9167434550027975	1.4775648079760504	2.324450486990213	2.289592260302099	0.6825665814332708	1.4121975863088114	3.1001677434850845	3.9458689590012614	2.4166216789266928	0.294507830591507	0.9871457790247253	4.104660500653575	4.504439819407412	4.335109699748259	2.062116856137039	1.358630057719386	3.9385332961779853	4.571202743433187	3.6884386446335107	2.18827914639163	2.247679227876181	3.7174277211746998	4.790829646412619	3.9534265895211207	2.720461123273708	3.754445066509707	3.9071421524584125	3.246332875638636	3.792550077399829	3.494500389813099
420	-0.5842852577716477	-0.18421696079950717	-0.2389826917575047	0.7245631795709528	0.6752397400973991	1.386333342866727	2.2100589219561484	2.3481981695016674	0.372969596636391	1.1104477615930564	2.843790285559988	3.546153536426462	2.896179430325179	0.04786216828063936	0.459444223674457	3.63446830785571	3.897831668549424	4.78721283657678	1.3142213788230233	0.693440077938258	3.279134026831456	3.712904443903405	3.4448528202820747	1.2770652738753294	1.5560533961110157	2.9334213659611326	3.982993354278015	3.599441757651175	2.0045936057024374	3.051131240770755	3.3614094172487308	2.527929538066444	3.204108706967776	2.9287638590301426
424	-0.1544587161217556	0.13815756107258004	0.008743754565991673	0.7083276492355094	0.4997036742468686	1.347552653725137	2.075069183832609	2.3622391164266667	0.3641296615943939	0.9063863135341959	2.6263942652195778	3.127593986244209	3.348370782027744	0.14990748427213185	0.0461298412410029	3.1853818813009456	3.2001919665601846	4.7359967112178065	0.5112855421509006	0.1317444142353247	2.6259150438767938	2.734246247063977	3.2189311899930972	0.5219295011694373	0.9029018856140686	2.1727476065138513	3.075088254794132	3.2357790388427725	1.3419834341499646	2.3690946042328447	2.7073049476935207	1.8467315388784056	2.6269881658986205	2.2638451995913473
428	0.26143932276522214	0.4736854124030736	0.3009451024086742	0.6817204935028203	0.5363190756608476	1.449476238405854	2.0337789007337324	2.3007771910752512	0.6638992412017758	0.9062575675018061	2.585062974125199	2.87794970739452	3.62590335884169	0.5850898608694393	-0.1323852386708482	2.923912279376254	2.650906079275123	4.225327481092328	-0.0694008169806178	-0.1840734626175727	2.1605598871995295	1.9355840634114598	3.1359059731464414	0.11839114844710473	0.45677041892122844	1.6162270266735084	2.3565964639293164	3.036741964302568	0.8799735881522732	1.8468093825442857	2.1373097842614044	1.361185547253034	2.1900057737371244	1.7125263170874194
432	0.556726513887522	0.7389668803631393	0.562761245737215	0.6548291428245596	0.8026396611929816	1.6791008668467984	2.087632412408068	2.1332583373569602	1.0734463903028089	1.0869827243064136	2.732902281536975	2.84322737929615	3.5946342854343087	1.0812678309797779	-0.1140731570224788	2.8858740256881115	2.3605596959597155	3.426115027360633	-0.34158509883469357	-0.26883599094227184	1.9310276459577538	1.465151544686468	3.1707725444848034	0.041574317856966164	0.23191133082965656	1.3040069308736535	1.9478132675584405	3.0098838730160082	0.6348800047104061	1.5013123712782153	1.7287518934472106	1.107299921101126	1.9148578595453314	1.3758048976494734
436	0.686626551801896	0.8707326032589174	0.7287269216258702	0.6060424431758531	1.1813096970296868	1.923024530323968	2.125060791372408	1.8631410551715093	1.3027496304999358	1.313047763370359	2.952687732871108	2.91031860570452	3.193982116264584	1.2573448387826018	-0.05579601214150013	2.970165006768022	2.266368621826187	2.5451004440899863	-0.409075855175984	-0.26323607497511753	1.848044033153046	1.2666857210603488	3.156545869487153	0.11169013352805285	0.11314830900473707	1.1416308851028887	1.7607531503091642	2.9944698734974295	0.5146018849731856	1.2490352360661547	1.4253094160333977	1.0130100224668097	1.7346700386120173	1.2143212526180325
440	0.6783453208962904	0.8490920045395983	0.7666051368431946	0.5133920895012339	1.4870191774971633	2.0285243936821793	1.9946802804177128	1.5440556964037582	1.1416211099411702	1.4177914822068587	3.06548594654506	2.8872330115855593	2.485667222423024	0.8574815370844874	-0.12429504810184602	3.0090184135760545	2.1940023843685132	1.74039816416976	-0.4485448289513802	-0.33059602892377865	1.760925288522841	1.1494572133607168	2.8886976169132828	0.14062799477834842	-0.04067799811225802	0.9845889185842508	1.587896462246135	2.7691450049104365	0.4050798107887189	0.9883413289866116	1.104673859668242	0.9735780333734032	1.5636113842587427	1.1041707964676077
444	0.5987736567638461	0.7005645019009834	0.6843748671419011	0.3833757331228744	1.563651200161352	1.8886476707458442	1.6074680049365895	1.261608359012621	0.5826969132016833	1.29676782757467	2.932269565808401	2.630177729641788	1.6575976568333397	-0.07349409889500783	-0.39043876430163615	2.86883019676691	1.9824364135281545	1.0901769372118622	-0.5715696797245278	-0.5527357445113062	1.5596102436743622	0.9282408929277183	2.266661638259163	0.05273060859837626	-0.29188492820478806	0.7420784216264932	1.2549105850961206	2.2036144677793037	0.25510150129761155	0.6837684494874873	0.6819712502427572	0.9295930838956789	1.3649363483299901	0.9321913695641676
448	0.5000826107750714	0.4793990838344945	0.5178760277070761	0.2542115741510394	1.356294151696536	1.5028814039433211	1.0059465144508908	1.0879449816892381	-0.17302425162023125	0.9586350893612953	2.531161063479428	2.1403171962105985	0.9616675948658765	-1.185649511204826	-0.7919157723460029	2.523890488928082	1.5951139886637644	0.6136768444779892	-0.7528965454166239	-0.8879196025365083	1.2410849301475066	0.549629508061324	1.382047530499618	-0.08937701560343103	-0.5854730591297328	0.43720504531149235	0.7459458093883353	1.3610244955032575	0.10597727420991494	0.3983606388047982	0.18421678198557329	0.898441848870721	1.1761462658751207	0.6729538423713894
452	0.38402426145871565	0.24096475480753893	0.3101240984716201	0.1723322118938138	0.9251254773624639	0.9788420175634515	0.3561418643542767	1.0410964462697996	-0.8257766941202535	0.5085104691064543	1.9668232152872394	1.5681701858982338	0.6076195224679833	-2.0005288073575977	-1.182899352901833	2.0620107598696067	1.1437903613776488	0.31709039131215566	-0.8665901400621313	-1.2120606868659884	0.9008958316945729	0.1227145340920692	0.49550616616077137	-0.16030792851505357	-0.7989111522531154	0.18638604832321318	0.22026026193321516	0.4862316238524918	0.04841160762008201	0.2520686679674849	-0.25251927908084915	0.9416344738074465	1.0762406560428244	0.40160959857633477
456	0.20916005916239708	0.022567637207750738	0.09420949941929796	0.15977969725322652	0.4052331139346942	0.4779449689242254	-0.1342385407873315	1.072159406816068	-1.1358475656442235	0.08217499384398454	1.4120491707436955	1.1251540155613589	0.6622478945224428	-2.1678492968185767	-1.4308564626807696	1.6251676041579546	0.812714157436772	0.21927379016351184	-0.7936941961276761	-1.4083287680354981	0.6605530364525337	-0.16268093842918252	-0.09089979506430806	-0.083307176618054	-0.8395171144270539	0.1143964451643437	-0.09000927932187028	-0.1175532040012261	0.14218781852585982	0.33488944088307737	-0.4629705834620778	1.0980341406756062	1.1219507427499273	0.2390218669101844
460	-0.06678634865111334	-0.16127558011821655	-0.11221568258087178	0.1959021086515129	-0.0600490717563878	0.136277481569499	-0.3267731658314712	1.0900576087133231	-1.0447670194950904	-0.22705797793759033	1.0172214482374269	0.9563423371011538	1.0125385497278265	-1.659860725980458	-1.4976265392639003	1.3245526518758577	0.7329913359255589	0.3424021593032117	-0.5228263126524636	-1.4443908893357464	0.5807467088342011	-0.17388676063027592	-0.1943068052392885	0.10265146915029574	-0.7200974207817212	0.26182684236225096	-0.033889140848190204	-0.25178018148750037	0.356801270537762	0.633497057745819	-0.3572774520436704	1.3347421850837742	1.2991902795415151	0.26947796276720437
464	-0.4393195498818831	-0.3121267549263722	-0.303031473586802	0.22388270440797134	-0.3784165372831155	0.00025898314132160775	-0.2318679237472085	1.0086815331741492	-0.6964412910044111	-0.4096286584525577	0.8347180464650799	1.0469697687418482	1.4098651373553497	-0.7952663878389471	-1.4588285647753692	1.1772725552399528	0.8825404621730446	0.6642007810989331	-0.18080720259793379	-1.3921922410147767	0.6127637609269803	0.05585747570597927	0.13989588582958187	0.26072251730896306	-0.5636909589840742	0.5411242232965734	0.34542006166985983	0.06262645854635498	0.5719668254716636	1.017749306970225	0.01199060489190204	1.5489996632568153	1.520602818464619	0.48210123059624216
468	-0.8400096276055895	-0.43941035755796914	-0.47853755830108613	0.1769445981088227	-0.5352618680791357	0.01111329344089381	-0.009787449588502604	0.7844398597939243	-0.3528372636469828	-0.5281963931099443	0.8002426604093911	1.2229859798071547	1.5761536319992933	-0.07252865266369596	-1.4512940608576244	1.102371809083539	1.0823947163910563	1.0693573924722513	0.029468776583775867	-1.3788768018241517	0.6217010601559722	0.32558163918309707	0.6503952129155577	0.24939478870845055	-0.5308671580262969	0.7728844861544282	0.8163482526195524	0.5904991015784385	0.6428302510244095	1.3008705344734912	0.46465325238216115	1.6239559609420195	1.6726558166235077	0.7718809227528787
472	-1.165933248437222	-0.5563560114165336	-0.6430162771202839	0.009420020482002677	-0.5834885224869466	0.04140204553283904	0.10706750276474905	0.427374928110664	-0.2579518848105413	-0.6688292605679907	0.7749810795291091	1.2442631690081958	1.3256604638008562	0.08733887203338535	-1.587691779896493	0.9720481609598157	1.0905836793067827	1.3551465238689282	-0.055625043668974174	-1.5070626697637581	0.4634390461665073	0.3717831661851323	0.9930464600286568	0.018787464079510756	-0.720070121854483	0.7785988430392623	1.0791469785147347	1.006902453741385	0.4856246995585987	1.3366024460425174	0.7815709094341938	1.5006906948347774	1.680515523482326	0.9977761481842876
476	-1.3377081122003094	-0.680101750564097	-0.8049954751671362	-0.2833781831262442	-0.6090989097475735	-0.03832715740063924	-0.06937136483559252	-0.014247404375463889	-0.5209948407370741	-0.887610254430905	0.6223117693447989	0.9366639232828865	0.6388791187368693	-0.4499956358038727	-1.8922482681183455	0.6861116868816262	0.7386287432141823	1.2924405303749018	-0.46460041286470116	-1.7962229206511302	0.06875351053999135	0.01987235615600579	0.915334699227088	-0.35183018357140045	-1.1052482100238477	0.47609916209180364	0.9297955608734697	1.0656461688793262	0.12972724404960642	1.0963171692825413	0.8167056420687232	1.2191743819926815	1.550669666189916	1.0620115968593888
480	-1.3491344417841926	-0.8302798250216649	-0.9755076145338452	-0.6638243777681269	-0.6885924321909146	-0.2948246292776883	-0.5860779270633864	-0.4794892060571674	-1.0738413306780934	-1.1802229851488855	0.2804520719123184	0.2925793223146682	-0.3382458380265503	-1.4765188656721726	-2.2922716082872774	0.23004391731355833	0.0365905686289121	0.7319571953413168	-1.068400499507443	-2.178531641228252	-0.5125660287313774	-0.7029510718717645	0.38488301537614894	-0.6965897661741718	-1.5492799242958417	-0.0749282536999082	0.3772830357562837	0.7254086714549571	-0.29478594586332674	0.6833333951863702	0.5723897204252772	0.9027919746493803	1.3671841586880844	0.9655530428350401
484	-1.2720154491734184	-1.0189657185577299	-1.159795877389485	-1.0661315891051515	-0.8542298056969758	-0.699413476608632	-1.3214750256552954	-0.9118478871211757	-1.713931913816964	-1.4869195185313506	-0.20534791000496097	-0.5174567686367846	-1.3576706613595035	-2.5580675537374233	-2.6653940610348092	-0.3150937847288329	-0.8194857815079626	-0.28899475859157114	-1.642517085696793	-2.548079007391182	-1.1353067130988972	-1.567737933015414	-0.39330223103406114	-0.8598657824741281	-1.885342950829261	-0.7056012731857216	-0.3602487137758995	0.1657432462560762	-0.6285887344702475	0.27428615023980607	0.19253505717781325	0.6930009109166617	1.2430973021593326	0.8067911842957507
488	-1.2095639675119405	-1.2341463534667216	-1.3442662920390982	-1.4146405422734076	-1.0793826552795815	-1.140804526309809	-2.0400266595833143	-1.2593208519612065	-2.2011160794952063	-1.7260478691391574	-0.704933820375212	-1.2280334203232808	-2.1615996306203664	-3.250556937593914	-2.9088470862380205	-0.8136787990053814	-1.5441598853225624	-1.5160934886801665	-1.9755034396839641	-2.828198664200427	-1.6357051092811914	-2.2613065185674834	-1.0867387028913194	-0.7862004021822101	-2.015349144615712	-1.2293415038542188	-0.9797252391875033	-0.3193761996311984	-0.7722823004297827	0.020536024071581775	-0.12265140532283085	0.6706637127156114	1.2543417183678205	0.7229261976109745
492	-1.2309906451617008	-1.4299710952895113	-1.4888784847815926	-1.643051024103343	-1.2878940072922034	-1.4733902178758114	-2.498224967371177	-1.4674433432722955	-2.3607025086882367	-1.833452458521002	-1.062457797229051	-1.60533701968196	-2.562581532684156	-3.301931849726168	-2.9872834607042944	-1.1392174930420262	-1.9019404601715117	-2.550997727629174	-1.9699739168021118	-3.011482946422005	-1.9131176423408627	-2.54791879010643	-1.409060713071492	-0.54833745817979	-1.9635251710908543	-1.5362682303742252	-1.2593599526080805	-0.48604395862889027	-0.7389051299513079	-0.03130387506926167	-0.22800543846738666	0.811347422935523	1.3960862124481215	0.809879122119833
496	-1.3213323321360635	-1.5319294890826893	-1.5325720271517458	-1.7076418356696978	-1.383179422701045	-1.5772947033159925	-2.5492169792663604	-1.481317277983056	-2.1458966677846463	-1.7870030358019717	-1.1636849612419706	-1.552961226357165	-2.4858038362685044	-2.7421572139171726	-2.9357743189123453	-1.229186412568905	-1.8193268730006353	-3.009768001586857	-1.6827081399394976	-3.151092044503974	-1.9739681432477159	-2.3917875229530163	-1.2638815609493257	-0.3038943402247144	-1.8567168665738372	-1.6415395695249446	-1.1777965992754948	-0.2732573144689356	-0.6437282546003283	0.04060323526144695	-0.11292830081084597	0.9967980359659929	1.5819612701529655	1.06201779574243
500	-1.384474989256612	-1.4636286460163017	-1.41699993252624	-1.5963860709893491	-1.2883483138935345	-1.4042215311836854	-2.1970136110149636	-1.2660582033617378	-1.6413609940096483	-1.6083074767514867	-0.9798846816118749	-1.1424087257152435	-1.9759907672584174	-1.831579919005466	-2.8239698338735795	-1.1037939759042892	-1.4069117272141858	-2.6993331841028074	-1.2874236074368237	-3.31169938205014	-1.9139290999727863	-1.9672808597486695	-0.7863181809599888	-0.20942966587119669	-1.8439327431853987	-1.66141449985654	-0.9150435305380953	0.16639181929540092	-0.6377495511165828	0.08303227999704395	0.09592184400182392	1.0756660672686402	1.686004395996544	1.3662464584188454
504	-1.3043870892970713	-1.187400814873195	-1.1200119228695684	-1.3362070288300758	-0.9842280720656916	-0.9932939981177841	-1.5801577528159052	-0.8373507836181617	-1.0196760867123695	-1.348156806403055	-0.572269617066358	-0.5598096833400343	-1.1803929775953557	-0.9213451719864186	-2.7114970615592795	-0.8438793399485721	-0.8845297075827562	-1.7258419946966228	-0.9899423693458811	-3.5159256369513883	-1.8520319415063198	-1.552351351633363	-0.264988004492255	-0.3417500844910153	-2.006503576934798	-1.7343766645511736	-0.7374147158124622	0.5518494830503785	-0.8245178440257754	-0.04294815276150614	0.20873449690093643	0.9385935640479731	1.6030628640709415	1.5546960791436173
508	-1.0206249926547981	-0.732438324032729	-0.6766755563817685	-0.9849171613622002	-0.520881413098353	-0.4497345376580933	-0.897796867011235	-0.2759368412680481	-0.4686939406482503	-1.0609148713982908	-0.05736229926766306	-0.005489809890387084	-0.31054118197238284	-0.29731047078409223	-2.6180515223207195	-0.5428561554554392	-0.46055525425026517	-0.46907120824640364	-0.9282361245561483	-3.7183194066582885	-1.8561247540341335	-1.3728940452245717	0.012247237345947423	-0.6663541776999417	-2.308514589203299	-1.9336497734840925	-0.8389066436568057	0.6263265593927986	-1.203545209707007	-0.38243770502808994	0.08006405065111011	0.5709958658107239	1.2980074849735785	1.488885398920369
512	-0.5722077474452374	-0.1920673097291193	-0.17363764301806614	-0.609419821154234	0.004346346471661074	0.10285002712270246	-0.3176649204816951	0.2931878559339662	-0.11959411918724684	-0.7800959925029506	0.44825550800637093	0.39939910072577556	0.41127160087699854	-0.07846914957023696	-2.5218419965016134	-0.2589530342239835	-0.23024697543663422	0.5785392508205177	-1.1063544722280858	-3.822130908852855	-1.9009643745111342	-1.4821121655237737	-0.09302544570324368	-1.0609332296288352	-2.6136302882010227	-2.219664329646741	-1.2277970283026984	0.2954238943747471	-1.6688002305813012	-0.8591544606451745	-0.3089507214375342	0.0579837372925223	0.8207719305296788	1.1319092483552775
516	-0.08122242221591164	0.31422814647494546	0.2862122349665468	-0.2576734119108538	0.4955377566224226	0.5761747345682479	0.08999453462290619	0.7526813130448833	0.00043072810404219013	-0.5032353388478611	0.878835854695673	0.6549888832721543	0.817122159325362	-0.2014937544742255	-2.379312747670181	0.00923367214851835	-0.14349508249293436	1.0375198099644376	-1.3891630137656497	-3.7271873856855815	-1.8812094879338133	-1.7393828586532192	-0.5011068569883058	-1.3686008418815292	-2.7542986800272655	-2.4575266776027145	-1.7209005312386398	-0.3208271256929801	-2.058308596182665	-1.3115322556761262	-0.8369395711748946	-0.45596134547509	0.28448262738882135	0.5735221490685057
